# 1304     AichiSR QXAFS
# Start     : 8.9544
# End       : 9.0544
# Dir       : Backward
# Points    : 300
# ScanTime  : 1.01549
# Date      : 13.04.23 22:23
# Ring Cur. : 25.5[mA]
12.7557	12.6118	0.305823	0.234781
12.7562	12.6122	0.304221	0.233529
12.7566	12.6127	0.305146	0.233686
12.7571	12.6131	0.307235	0.235471
12.7576	12.6136	0.30578	0.236996
12.7581	12.6141	0.305073	0.237748
12.7585	12.6145	0.307414	0.237489
12.759	12.615	0.305164	0.236902
12.7595	12.6155	0.306938	0.237648
12.7599	12.616	0.307831	0.239245
12.7604	12.6164	0.306741	0.240379
12.7609	12.6169	0.306359	0.238325
12.7614	12.6174	0.307631	0.239339
12.7618	12.6179	0.310462	0.239189
12.7623	12.6184	0.30603	0.239744
12.7628	12.6188	0.307307	0.241245
12.7632	12.6193	0.30864	0.241261
12.7637	12.6197	0.308448	0.238733
12.7642	12.6202	0.308023	0.239671
12.7647	12.6207	0.310329	0.241121
12.7651	12.6212	0.308489	0.242781
12.7656	12.6217	0.306359	0.239362
12.7661	12.6221	0.309158	0.24051
12.7666	12.6226	0.310277	0.240628
12.767	12.6231	0.306906	0.242474
12.7675	12.6235	0.307332	0.242376
12.768	12.624	0.3099	0.244306
12.7684	12.6245	0.30858	0.243444
12.7689	12.625	0.307958	0.242611
12.7694	12.6254	0.309017	0.246895
12.7699	12.6259	0.30855	0.246165
12.7703	12.6264	0.307421	0.24578
12.7708	12.6269	0.308054	0.244975
12.7713	12.6274	0.309875	0.247663
12.7717	12.6278	0.307672	0.247663
12.7722	12.6283	0.306999	0.247944
12.7727	12.6288	0.30841	0.246985
12.7732	12.6292	0.308257	0.247627
12.7736	12.6297	0.308696	0.246139
12.7741	12.6302	0.309988	0.248268
12.7746	12.6306	0.307817	0.248657
12.7751	12.6311	0.307857	0.246783
12.7755	12.6316	0.311461	0.247612
12.776	12.6321	0.310564	0.246968
12.7765	12.6325	0.309891	0.247724
12.7769	12.633	0.309379	0.24917
12.7774	12.6335	0.309704	0.247554
12.7779	12.6339	0.309007	0.246401
12.7784	12.6344	0.30917	0.246093
12.7788	12.6349	0.310263	0.248384
12.7793	12.6353	0.309199	0.248882
12.7798	12.6358	0.308262	0.247517
12.7802	12.6363	0.311303	0.249907
12.7807	12.6368	0.310568	0.249316
12.7812	12.6373	0.309527	0.249234
12.7817	12.6377	0.309158	0.252496
12.7821	12.6382	0.311181	0.251742
12.7826	12.6387	0.310779	0.250948
12.7831	12.6391	0.309172	0.251798
12.7836	12.6396	0.311485	0.255038
12.784	12.64	0.309351	0.253498
12.7845	12.6405	0.308749	0.252485
12.785	12.641	0.312642	0.253425
12.7854	12.6415	0.309976	0.253833
12.7859	12.6419	0.30791	0.253117
12.7864	12.6424	0.309769	0.25459
12.7869	12.6429	0.311313	0.25299
12.7873	12.6433	0.310135	0.251349
12.7878	12.6438	0.309142	0.250628
12.7883	12.6443	0.309564	0.252232
12.7887	12.6447	0.308095	0.249305
12.7892	12.6452	0.308113	0.24768
12.7897	12.6457	0.309618	0.24794
12.7902	12.6462	0.310919	0.248861
12.7906	12.6467	0.309068	0.247557
12.7911	12.6471	0.307425	0.246176
12.7916	12.6476	0.310298	0.245481
12.7921	12.6481	0.310998	0.242755
12.7925	12.6486	0.308154	0.240513
12.793	12.649	0.310463	0.241198
12.7935	12.6495	0.309608	0.240603
12.7939	12.65	0.3096	0.23502
12.7944	12.6505	0.311265	0.234718
12.7949	12.6509	0.312582	0.234537
12.7954	12.6514	0.310198	0.232269
12.7958	12.6519	0.312946	0.231469
12.7963	12.6524	0.311987	0.228565
12.7968	12.6528	0.312252	0.226702
12.7972	12.6533	0.312101	0.225582
12.7977	12.6538	0.313501	0.226526
12.7982	12.6542	0.310287	0.222794
12.7987	12.6547	0.311452	0.219422
12.7991	12.6552	0.315283	0.219855
12.7996	12.6557	0.314808	0.218298
12.8001	12.6561	0.3113	0.218135
12.8006	12.6566	0.312277	0.216749
12.801	12.6571	0.312902	0.215605
12.8015	12.6576	0.313693	0.215416
12.802	12.6581	0.3158	0.217999
12.8024	12.6585	0.315453	0.218426
12.8029	12.659	0.312955	0.218046
12.8034	12.6594	0.313156	0.216515
12.8039	12.6599	0.316598	0.21931
12.8043	12.6604	0.31433	0.22062
12.8048	12.6609	0.313645	0.222021
12.8053	12.6613	0.313937	0.224142
12.8057	12.6618	0.314227	0.222761
12.8062	12.6623	0.314718	0.223651
12.8067	12.6627	0.314725	0.2271
12.8072	12.6632	0.313442	0.22995
12.8076	12.6637	0.314014	0.229656
12.8081	12.6641	0.312848	0.23057
12.8086	12.6646	0.31597	0.234717
12.8091	12.6651	0.315133	0.235902
12.8095	12.6656	0.313947	0.238524
12.81	12.666	0.31632	0.2396
12.8105	12.6665	0.315503	0.241148
12.8109	12.667	0.317344	0.244007
12.8114	12.6675	0.316152	0.246281
12.8119	12.6679	0.31571	0.247959
12.8124	12.6684	0.314129	0.250195
12.8128	12.6689	0.313236	0.249497
12.8133	12.6693	0.317636	0.254437
12.8138	12.6698	0.317052	0.256863
12.8142	12.6703	0.314759	0.257428
12.8147	12.6707	0.315258	0.258506
12.8152	12.6712	0.317644	0.261154
12.8157	12.6717	0.318872	0.262904
12.8161	12.6721	0.317687	0.267054
12.8166	12.6726	0.318511	0.269684
12.8171	12.6731	0.316406	0.267953
12.8176	12.6735	0.317785	0.269257
12.818	12.674	0.32057	0.272278
12.8185	12.6745	0.320293	0.273334
12.819	12.675	0.316857	0.272694
12.8194	12.6755	0.317129	0.274045
12.8199	12.6759	0.319505	0.274349
12.8204	12.6764	0.319737	0.274344
12.8209	12.6769	0.319425	0.275371
12.8213	12.6774	0.318936	0.27761
12.8218	12.6779	0.317272	0.274853
12.8223	12.6783	0.318665	0.274105
12.8227	12.6788	0.323249	0.276299
12.8232	12.6793	0.321478	0.276447
12.8237	12.6797	0.319547	0.275881
12.8242	12.6802	0.320437	0.272859
12.8246	12.6807	0.321493	0.270463
12.8251	12.6812	0.323118	0.268435
12.8256	12.6816	0.320828	0.265763
12.8261	12.6821	0.319231	0.263317
12.8265	12.6826	0.32038	0.261075
12.827	12.683	0.31854	0.256859
12.8275	12.6835	0.320984	0.256812
12.8279	12.684	0.320636	0.254656
12.8284	12.6844	0.319822	0.252616
12.8289	12.6849	0.320571	0.248501
12.8294	12.6854	0.319956	0.245907
12.8298	12.6859	0.32288	0.244193
12.8303	12.6864	0.322421	0.240915
12.8308	12.6868	0.322969	0.239084
12.8312	12.6873	0.322328	0.234108
12.8317	12.6878	0.320844	0.228798
12.8322	12.6883	0.325026	0.227952
12.8327	12.6887	0.323227	0.227616
12.8331	12.6892	0.321828	0.224066
12.8336	12.6897	0.319666	0.222596
12.8341	12.6901	0.323206	0.221957
12.8346	12.6906	0.32451	0.224205
12.835	12.6911	0.322653	0.226895
12.8355	12.6915	0.322949	0.230912
12.836	12.692	0.323625	0.233982
12.8364	12.6925	0.323393	0.23669
12.8369	12.6929	0.32647	0.243101
12.8374	12.6934	0.32432	0.248715
12.8379	12.6939	0.323582	0.253176
12.8383	12.6943	0.324079	0.255175
12.8388	12.6948	0.32171	0.257909
12.8393	12.6953	0.324376	0.261048
12.8397	12.6958	0.324509	0.263916
12.8402	12.6962	0.324603	0.265032
12.8407	12.6967	0.322037	0.261894
12.8412	12.6972	0.322064	0.259404
12.8416	12.6977	0.325715	0.261443
12.8421	12.6981	0.325545	0.259883
12.8426	12.6986	0.321529	0.255825
12.8431	12.6991	0.323245	0.251721
12.8435	12.6995	0.324473	0.247879
12.844	12.7	0.325321	0.246657
12.8445	12.7005	0.324485	0.242745
12.8449	12.7009	0.322637	0.239379
12.8454	12.7014	0.324283	0.234806
12.8459	12.7019	0.323213	0.230491
12.8464	12.7024	0.325765	0.230422
12.8468	12.7028	0.325415	0.230349
12.8473	12.7033	0.323942	0.22989
12.8478	12.7038	0.322074	0.230602
12.8482	12.7042	0.325671	0.232245
12.8487	12.7047	0.326802	0.237878
12.8492	12.7052	0.326195	0.244399
12.8497	12.7057	0.325833	0.25326
12.8501	12.7062	0.327238	0.259981
12.8506	12.7067	0.326922	0.267556
12.8511	12.7071	0.330577	0.28105
12.8516	12.7076	0.330094	0.295486
12.852	12.7081	0.325213	0.306969
12.8525	12.7086	0.325387	0.316782
12.853	12.709	0.328564	0.331317
12.8534	12.7095	0.328297	0.345331
12.8539	12.7099	0.32682	0.358792
12.8544	12.7104	0.327795	0.37515
12.8549	12.7109	0.328366	0.385163
12.8553	12.7114	0.326429	0.394706
12.8558	12.7119	0.328479	0.410056
12.8563	12.7123	0.33018	0.424182
12.8567	12.7128	0.328311	0.433862
12.8572	12.7132	0.327947	0.439217
12.8577	12.7137	0.327841	0.448826
12.8582	12.7142	0.329925	0.458399
12.8586	12.7147	0.329776	0.467927
12.8591	12.7151	0.328208	0.479015
12.8596	12.7156	0.327863	0.481282
12.8601	12.7161	0.328482	0.494479
12.8605	12.7166	0.328365	0.502943
12.861	12.7171	0.329783	0.511861
12.8615	12.7175	0.326634	0.517302
12.8619	12.718	0.328689	0.519601
12.8624	12.7185	0.327878	0.520078
12.8629	12.7189	0.326788	0.518613
12.8634	12.7194	0.328375	0.517226
12.8638	12.7199	0.327111	0.513096
12.8643	12.7203	0.326947	0.508976
12.8648	12.7208	0.326856	0.504726
12.8652	12.7213	0.330368	0.510835
12.8657	12.7218	0.329905	0.518789
12.8662	12.7222	0.326265	0.533628
12.8667	12.7227	0.324712	0.550574
12.8671	12.7231	0.325984	0.583328
12.8676	12.7236	0.327208	0.630256
12.8681	12.7241	0.325281	0.677778
12.8686	12.7245	0.32247	0.728636
12.869	12.725	0.322107	0.774529
12.8695	12.7255	0.32168	0.814644
12.87	12.726	0.325169	0.85676
12.8704	12.7265	0.325639	0.889492
12.8709	12.7269	0.325232	0.906115
12.8714	12.7274	0.326005	0.917525
12.8719	12.7279	0.328346	0.932995
12.8723	12.7284	0.326329	0.939941
12.8728	12.7288	0.3261	0.94886
12.8733	12.7293	0.327952	0.96009
12.8737	12.7298	0.327203	0.95624
12.8742	12.7302	0.32467	0.95771
12.8747	12.7307	0.327243	0.966212
12.8752	12.7312	0.328032	0.977058
12.8756	12.7317	0.325795	0.971832
12.8761	12.7321	0.325776	0.969128
12.8766	12.7326	0.328517	0.97568
12.8771	12.7331	0.329429	0.980594
12.8775	12.7335	0.32814	0.981865
12.878	12.734	0.328127	0.985922
12.8785	12.7345	0.32714	0.98207
12.8789	12.735	0.328846	0.984486
12.8794	12.7354	0.329283	0.990271
12.8799	12.7359	0.331437	0.994877
12.8804	12.7364	0.327033	0.990949
12.8808	12.7369	0.327528	0.987019
12.8813	12.7374	0.328856	0.99312
12.8818	12.7379	0.329062	0.990029
12.8822	12.7383	0.327496	0.994753
12.8827	12.7388	0.32854	0.99872
12.8832	12.7393	0.328075	0.9918
12.8837	12.7397	0.328639	0.990043
12.8841	12.7402	0.330434	0.997233
12.8846	12.7407	0.330664	1.00292
12.8851	12.7411	0.32918	1.00083
12.8856	12.7416	0.328656	0.993158
12.886	12.7421	0.332092	1.00061
12.8865	12.7425	0.330903	1.00111
12.887	12.743	0.330681	1.00144
12.8874	12.7435	0.330566	1.00722
12.8879	12.7439	0.329607	1.00276
12.8884	12.7444	0.32953	1.00068
12.8889	12.7449	0.332185	1.00888
12.8893	12.7454	0.331331	1.00568
12.8898	12.7459	0.330655	1.00758
12.8903	12.7463	0.328455	1.00461
12.8907	12.7468	0.331631	1.00401
12.8912	12.7473	0.330826	1.00332
12.8917	12.7478	0.332119	1.01033
12.8922	12.7482	0.332158	1.01341
12.8926	12.7487	0.329805	1.00431
12.8931	12.7492	0.332586	1.00697
12.8936	12.7496	0.333341	1.01324
12.8941	12.7501	0.331926	1.01481
12.8945	12.7506	0.32963	1.00966
12.895	12.751	0.330999	1.00984
12.8955	12.7515	0.333254	1.01474
12.8959	12.752	0.330351	1.00978
12.8964	12.7524	0.33049	1.01119
12.8969	12.7529	0.331561	1.01245
12.8974	12.7534	0.330707	1.00702
12.8978	12.7538	0.330556	1.00625
12.8983	12.7543	0.332731	1.01409
12.8988	12.7548	0.333275	1.016
