# 1304     AichiSR QXAFS
# Start     : 8.9544
# End       : 9.0544
# Dir       : Backward
# Points    : 300
# ScanTime  : 1.01549
# Date      : 13.04.23 22:24
# Ring Cur. : 25.5[mA]
12.7557	12.6118	0.305537	0.233354
12.7562	12.6122	0.306561	0.232723
12.7566	12.6127	0.306503	0.235449
12.7571	12.6131	0.307573	0.239368
12.7576	12.6136	0.307538	0.239347
12.7581	12.6141	0.307054	0.236056
12.7585	12.6145	0.310486	0.239631
12.759	12.615	0.306856	0.238215
12.7595	12.6155	0.308051	0.240599
12.7599	12.616	0.311753	0.243214
12.7604	12.6165	0.308776	0.238826
12.7609	12.6169	0.307842	0.238186
12.7614	12.6174	0.307059	0.239536
12.7618	12.6179	0.308627	0.242651
12.7623	12.6184	0.30777	0.24006
12.7628	12.6188	0.308561	0.240171
12.7632	12.6193	0.308324	0.239473
12.7637	12.6198	0.306961	0.239486
12.7642	12.6202	0.309671	0.241081
12.7647	12.6207	0.309451	0.24275
12.7651	12.6212	0.308302	0.240117
12.7656	12.6217	0.309344	0.239301
12.7661	12.6221	0.311145	0.242666
12.7666	12.6226	0.310346	0.243607
12.767	12.6231	0.309877	0.24368
12.7675	12.6235	0.308777	0.243116
12.768	12.624	0.309651	0.243525
12.7684	12.6245	0.308167	0.244276
12.7689	12.625	0.308324	0.245395
12.7694	12.6254	0.309887	0.245873
12.7699	12.6259	0.309495	0.245133
12.7703	12.6264	0.30975	0.247073
12.7708	12.6269	0.30828	0.246679
12.7713	12.6274	0.309357	0.249608
12.7717	12.6278	0.309981	0.248197
12.7722	12.6283	0.309019	0.247455
12.7727	12.6288	0.310686	0.24784
12.7732	12.6292	0.312543	0.249498
12.7736	12.6297	0.310284	0.249893
12.7741	12.6302	0.310305	0.249674
12.7746	12.6306	0.310722	0.247803
12.7751	12.6311	0.311485	0.247116
12.7755	12.6316	0.308476	0.248162
12.776	12.6321	0.309265	0.248881
12.7765	12.6325	0.310669	0.248392
12.7769	12.633	0.310728	0.24697
12.7774	12.6334	0.31154	0.247732
12.7779	12.6339	0.31045	0.247736
12.7784	12.6344	0.310482	0.247824
12.7788	12.6349	0.311769	0.250492
12.7793	12.6354	0.311851	0.250117
12.7798	12.6358	0.312114	0.248767
12.7802	12.6363	0.310648	0.250685
12.7807	12.6368	0.310699	0.251254
12.7812	12.6373	0.310783	0.252148
12.7817	12.6377	0.312769	0.252273
12.7821	12.6382	0.312344	0.25184
12.7826	12.6387	0.311596	0.253078
12.7831	12.6391	0.310221	0.25298
12.7836	12.6396	0.311975	0.254198
12.784	12.64	0.310784	0.253023
12.7845	12.6405	0.313318	0.254767
12.785	12.641	0.31294	0.255697
12.7854	12.6415	0.310779	0.256789
12.7859	12.6419	0.311455	0.254571
12.7864	12.6424	0.312811	0.254034
12.7869	12.6429	0.314353	0.257309
12.7873	12.6433	0.311007	0.254179
12.7878	12.6438	0.309038	0.253874
12.7883	12.6443	0.311795	0.253139
12.7887	12.6447	0.311479	0.251394
12.7892	12.6452	0.308935	0.24859
12.7897	12.6457	0.309898	0.249903
12.7902	12.6462	0.311249	0.251186
12.7906	12.6467	0.311032	0.249336
12.7911	12.6471	0.311564	0.24636
12.7916	12.6476	0.31451	0.246916
12.7921	12.6481	0.312061	0.24506
12.7925	12.6486	0.309788	0.244718
12.793	12.649	0.314399	0.242716
12.7935	12.6495	0.314808	0.241513
12.7939	12.65	0.314528	0.239563
12.7944	12.6505	0.313948	0.239149
12.7949	12.6509	0.315752	0.238837
12.7954	12.6514	0.312873	0.233121
12.7958	12.6519	0.313289	0.231769
12.7963	12.6523	0.316334	0.231498
12.7968	12.6528	0.314308	0.228554
12.7972	12.6533	0.31434	0.227215
12.7977	12.6537	0.31522	0.226815
12.7982	12.6542	0.315357	0.223142
12.7987	12.6547	0.316576	0.22291
12.7991	12.6552	0.316878	0.223228
12.7996	12.6557	0.315749	0.221525
12.8001	12.6561	0.31448	0.218954
12.8006	12.6566	0.318045	0.21764
12.801	12.6571	0.316887	0.218358
12.8015	12.6576	0.316026	0.218451
12.802	12.6581	0.314446	0.218454
12.8024	12.6585	0.314997	0.218413
12.8029	12.659	0.314183	0.21735
12.8034	12.6594	0.316027	0.218456
12.8039	12.6599	0.316666	0.22116
12.8043	12.6604	0.315979	0.221852
12.8048	12.6609	0.314986	0.221738
12.8053	12.6613	0.316508	0.224128
12.8057	12.6618	0.318663	0.226913
12.8062	12.6623	0.31595	0.228228
12.8067	12.6627	0.31757	0.230412
12.8072	12.6632	0.318737	0.231341
12.8076	12.6637	0.317987	0.232505
12.8081	12.6641	0.319332	0.233511
12.8086	12.6646	0.318547	0.237274
12.8091	12.6651	0.315758	0.237909
12.8095	12.6656	0.315389	0.238216
12.81	12.666	0.317969	0.240275
12.8105	12.6665	0.31938	0.2423
12.8109	12.667	0.314943	0.244472
12.8114	12.6675	0.317293	0.247407
12.8119	12.6679	0.317817	0.24963
12.8124	12.6684	0.317016	0.25046
12.8128	12.6689	0.318077	0.252465
12.8133	12.6693	0.319199	0.256974
12.8138	12.6698	0.317417	0.259367
12.8142	12.6703	0.318141	0.258965
12.8147	12.6707	0.317557	0.260726
12.8152	12.6712	0.318066	0.261983
12.8157	12.6717	0.317531	0.264785
12.8161	12.6721	0.315208	0.26588
12.8166	12.6726	0.316929	0.266418
12.8171	12.6731	0.315946	0.267421
12.8176	12.6735	0.317034	0.268261
12.818	12.674	0.318276	0.270985
12.8185	12.6745	0.317265	0.273209
12.819	12.675	0.31698	0.271654
12.8194	12.6755	0.319241	0.272074
12.8199	12.6759	0.319203	0.275077
12.8204	12.6764	0.318083	0.275816
12.8209	12.6769	0.315424	0.27577
12.8213	12.6774	0.318416	0.274652
12.8218	12.6779	0.320226	0.274642
12.8223	12.6783	0.31779	0.273279
12.8227	12.6788	0.317261	0.275161
12.8232	12.6793	0.317732	0.274884
12.8237	12.6797	0.317276	0.269906
12.8242	12.6802	0.317421	0.269523
12.8246	12.6807	0.319673	0.268615
12.8251	12.6812	0.317297	0.26507
12.8256	12.6816	0.315643	0.26368
12.8261	12.6821	0.317664	0.26117
12.8265	12.6826	0.319017	0.258337
12.827	12.683	0.316671	0.255223
12.8275	12.6835	0.317871	0.255834
12.8279	12.684	0.315897	0.251627
12.8284	12.6844	0.317555	0.248394
12.8289	12.6849	0.317745	0.245337
12.8294	12.6854	0.317643	0.243743
12.8298	12.6859	0.316764	0.24054
12.8303	12.6864	0.315001	0.236956
12.8308	12.6868	0.316425	0.233694
12.8312	12.6873	0.318848	0.229753
12.8317	12.6878	0.32191	0.228904
12.8322	12.6883	0.320349	0.226193
12.8327	12.6887	0.318404	0.224685
12.8331	12.6892	0.319439	0.220789
12.8336	12.6897	0.321489	0.220054
12.8341	12.6901	0.320366	0.221637
12.8346	12.6906	0.317899	0.221935
12.835	12.6911	0.317367	0.22352
12.8355	12.6916	0.320526	0.227257
12.836	12.692	0.320243	0.22942
12.8364	12.6925	0.318134	0.233409
12.8369	12.6929	0.318263	0.238692
12.8374	12.6934	0.31744	0.244091
12.8379	12.6939	0.3176	0.246498
12.8383	12.6943	0.318931	0.250744
12.8388	12.6948	0.320148	0.255731
12.8393	12.6953	0.317885	0.257398
12.8397	12.6958	0.31816	0.258562
12.8402	12.6962	0.320563	0.260207
12.8407	12.6967	0.320539	0.26014
12.8412	12.6972	0.317869	0.256967
12.8416	12.6977	0.319579	0.258062
12.8421	12.6982	0.319147	0.255899
12.8426	12.6986	0.318025	0.250176
12.8431	12.6991	0.320799	0.247369
12.8435	12.6995	0.319521	0.245654
12.844	12.7	0.315965	0.242147
12.8445	12.7005	0.317608	0.237938
12.8449	12.7009	0.320746	0.235514
12.8454	12.7014	0.321827	0.230129
12.8459	12.7019	0.319266	0.228793
12.8464	12.7024	0.320998	0.2289
12.8468	12.7028	0.319981	0.226436
12.8473	12.7033	0.319874	0.225176
12.8478	12.7038	0.322859	0.226997
12.8482	12.7042	0.324201	0.232302
12.8487	12.7047	0.321653	0.235856
12.8492	12.7052	0.321428	0.241111
12.8497	12.7057	0.322634	0.24829
12.8501	12.7062	0.323121	0.256288
12.8506	12.7067	0.321843	0.265972
12.8511	12.7071	0.322861	0.278319
12.8516	12.7076	0.322272	0.287614
12.852	12.7081	0.323153	0.299637
12.8525	12.7086	0.325054	0.314451
12.853	12.709	0.325274	0.329061
12.8534	12.7095	0.32433	0.343335
12.8539	12.71	0.323792	0.354971
12.8544	12.7104	0.323989	0.368764
12.8549	12.7109	0.327409	0.384122
12.8553	12.7114	0.326591	0.398326
12.8558	12.7119	0.325273	0.408821
12.8563	12.7123	0.32532	0.418142
12.8567	12.7128	0.32472	0.425745
12.8572	12.7132	0.3282	0.438336
12.8577	12.7137	0.327643	0.449715
12.8582	12.7142	0.324717	0.454312
12.8586	12.7147	0.322397	0.460498
12.8591	12.7151	0.323844	0.469418
12.8596	12.7156	0.328104	0.480287
12.8601	12.7161	0.326094	0.489192
12.8605	12.7166	0.326407	0.499313
12.861	12.7171	0.325926	0.50713
12.8615	12.7175	0.325529	0.510407
12.8619	12.718	0.328675	0.518702
12.8624	12.7185	0.328114	0.520413
12.8629	12.7189	0.32514	0.517656
12.8634	12.7194	0.324801	0.51236
12.8638	12.7199	0.326323	0.506889
12.8643	12.7203	0.328548	0.506186
12.8648	12.7208	0.324905	0.503583
12.8652	12.7213	0.324634	0.50681
12.8657	12.7218	0.323755	0.512172
12.8662	12.7222	0.323224	0.525784
12.8667	12.7227	0.326712	0.550756
12.8671	12.7231	0.32712	0.587908
12.8676	12.7236	0.324158	0.626732
12.8681	12.7241	0.321044	0.671521
12.8686	12.7245	0.322966	0.727425
12.869	12.725	0.323901	0.779495
12.8695	12.7255	0.322577	0.818772
12.87	12.726	0.323312	0.856573
12.8704	12.7265	0.324007	0.881014
12.8709	12.7269	0.321928	0.895111
12.8714	12.7274	0.325567	0.917392
12.8719	12.7279	0.32668	0.935315
12.8723	12.7284	0.324111	0.935064
12.8728	12.7288	0.324121	0.93915
12.8733	12.7293	0.326105	0.951567
12.8737	12.7298	0.32743	0.957723
12.8742	12.7302	0.326229	0.961036
12.8747	12.7307	0.327503	0.971047
12.8752	12.7312	0.326849	0.972609
12.8756	12.7317	0.326576	0.96685
12.8761	12.7321	0.330007	0.976988
12.8766	12.7326	0.330616	0.986573
12.8771	12.7331	0.327377	0.980366
12.8775	12.7335	0.327389	0.979421
12.878	12.734	0.328795	0.983551
12.8785	12.7345	0.328716	0.981972
12.8789	12.735	0.327968	0.982196
12.8794	12.7355	0.32667	0.989614
12.8799	12.7359	0.328698	0.990554
12.8804	12.7364	0.327785	0.983476
12.8808	12.7369	0.330556	0.98922
12.8813	12.7374	0.331156	0.998396
12.8818	12.7379	0.32826	0.995587
12.8822	12.7383	0.328828	0.991825
12.8827	12.7388	0.329052	0.995903
12.8832	12.7393	0.332382	1.00202
12.8837	12.7397	0.329912	1.00055
12.8841	12.7402	0.33013	1.00251
12.8846	12.7407	0.329662	0.998874
12.8851	12.7411	0.328524	0.997604
12.8856	12.7416	0.329998	1.00105
12.886	12.7421	0.331484	1.00483
12.8865	12.7425	0.328866	1.00098
12.887	12.743	0.328917	0.999923
12.8874	12.7435	0.330864	1.00632
12.8879	12.7439	0.331441	1.00523
12.8884	12.7444	0.331731	1.00671
12.8889	12.7449	0.332173	1.012
12.8893	12.7454	0.331336	1.00919
12.8898	12.7459	0.331345	1.00535
12.8903	12.7463	0.333134	1.01171
12.8907	12.7468	0.333438	1.01426
12.8912	12.7473	0.331694	1.01163
12.8917	12.7478	0.330569	1.00853
12.8922	12.7482	0.332706	1.01414
12.8926	12.7487	0.332646	1.01005
12.8931	12.7492	0.332168	1.01058
12.8936	12.7496	0.332726	1.0182
12.8941	12.7501	0.331236	1.0096
12.8945	12.7506	0.331085	1.01051
12.895	12.751	0.333558	1.01471
12.8955	12.7515	0.333709	1.02246
12.8959	12.752	0.332012	1.01613
12.8964	12.7524	0.332227	1.01177
12.8969	12.7529	0.333973	1.01613
12.8974	12.7534	0.334076	1.01632
12.8978	12.7538	0.331481	1.01341
12.8983	12.7543	0.332263	1.01721
12.8988	12.7548	0.333359	1.0143
