# 1304     AichiSR QXAFS
# Start     : 8.9544
# End       : 9.0544
# Dir       : Forward
# Points    : 300
# ScanTime  : 1.01549
# Date      : 13.04.23 22:23
# Ring Cur. : 25.5[mA]
12.7557	12.7557	0.399793	1.21675
12.7562	12.7552	0.398188	1.21626
12.7566	12.7548	0.400813	1.2201
12.7571	12.7543	0.401059	1.2221
12.7576	12.7538	0.399773	1.21783
12.7581	12.7533	0.400465	1.21825
12.7585	12.7529	0.400895	1.21865
12.759	12.7524	0.399635	1.21815
12.7595	12.752	0.399261	1.21918
12.7599	12.7515	0.401358	1.21894
12.7604	12.751	0.403079	1.21846
12.7609	12.7505	0.401368	1.22006
12.7614	12.7501	0.402552	1.22227
12.7618	12.7496	0.399594	1.22138
12.7623	12.7491	0.39936	1.21811
12.7628	12.7487	0.402813	1.219
12.7632	12.7482	0.40238	1.22101
12.7637	12.7477	0.401369	1.21999
12.7642	12.7473	0.399913	1.21706
12.7647	12.7468	0.400129	1.21779
12.7651	12.7463	0.40061	1.21732
12.7656	12.7458	0.402256	1.21753
12.7661	12.7454	0.401133	1.22122
12.7666	12.7449	0.401309	1.22187
12.767	12.7444	0.402547	1.21799
12.7675	12.7439	0.402205	1.21659
12.768	12.7435	0.402329	1.21771
12.7684	12.743	0.400696	1.22037
12.7689	12.7425	0.40071	1.21814
12.7694	12.7421	0.400761	1.21535
12.7699	12.7416	0.401842	1.21474
12.7703	12.7411	0.401733	1.2164
12.7708	12.7407	0.403279	1.21859
12.7713	12.7402	0.399767	1.21848
12.7717	12.7397	0.40091	1.21356
12.7722	12.7392	0.402327	1.21428
12.7727	12.7388	0.402143	1.21572
12.7732	12.7383	0.401671	1.21589
12.7736	12.7378	0.400585	1.21368
12.7741	12.7374	0.401738	1.21152
12.7746	12.7369	0.402663	1.21302
12.7751	12.7364	0.401052	1.21005
12.7755	12.7359	0.400444	1.2118
12.776	12.7354	0.401577	1.20868
12.7765	12.735	0.400137	1.20864
12.7769	12.7345	0.402975	1.20325
12.7774	12.734	0.402551	1.20615
12.7779	12.7335	0.401564	1.20451
12.7784	12.733	0.40075	1.20195
12.7788	12.7326	0.400578	1.19484
12.7793	12.7321	0.403755	1.19672
12.7798	12.7317	0.400426	1.19399
12.7802	12.7312	0.400471	1.19447
12.7807	12.7307	0.399852	1.19078
12.7812	12.7302	0.400128	1.18243
12.7817	12.7297	0.402534	1.18073
12.7821	12.7293	0.401156	1.17774
12.7826	12.7288	0.401719	1.17343
12.7831	12.7284	0.398642	1.16637
12.7836	12.7279	0.399589	1.15664
12.784	12.7274	0.401264	1.14433
12.7845	12.7269	0.399673	1.13359
12.785	12.7265	0.400123	1.11794
12.7854	12.726	0.398248	1.09908
12.7859	12.7255	0.396854	1.0639
12.7864	12.725	0.397964	1.02861
12.7869	12.7245	0.397025	0.985332
12.7873	12.7241	0.397118	0.931117
12.7878	12.7236	0.396845	0.867739
12.7883	12.7231	0.397598	0.805537
12.7887	12.7227	0.401388	0.749312
12.7892	12.7222	0.400232	0.704025
12.7897	12.7218	0.402883	0.667466
12.7902	12.7213	0.401621	0.643421
12.7906	12.7208	0.402082	0.626442
12.7911	12.7203	0.403087	0.620528
12.7916	12.7199	0.400623	0.619465
12.7921	12.7194	0.400717	0.624753
12.7925	12.7189	0.400573	0.628683
12.793	12.7185	0.399364	0.629741
12.7935	12.718	0.40147	0.634099
12.7939	12.7175	0.400202	0.636149
12.7944	12.7171	0.399169	0.634158
12.7949	12.7166	0.400875	0.627481
12.7954	12.7161	0.400072	0.61723
12.7958	12.7156	0.401385	0.606661
12.7963	12.7151	0.401432	0.595395
12.7968	12.7147	0.399935	0.587396
12.7972	12.7142	0.400308	0.573952
12.7977	12.7137	0.399224	0.563263
12.7982	12.7132	0.40108	0.551782
12.7987	12.7128	0.40019	0.544158
12.7991	12.7123	0.400463	0.532875
12.7996	12.7119	0.399795	0.521395
12.8001	12.7114	0.399403	0.505698
12.8006	12.7109	0.401451	0.49322
12.801	12.7104	0.40094	0.479413
12.8015	12.7099	0.400483	0.464847
12.802	12.7095	0.399478	0.446132
12.8024	12.709	0.399666	0.428521
12.8029	12.7086	0.399831	0.413174
12.8034	12.7081	0.400416	0.396859
12.8039	12.7076	0.398965	0.381005
12.8043	12.7071	0.400481	0.365287
12.8048	12.7066	0.399078	0.349037
12.8053	12.7062	0.400851	0.334319
12.8057	12.7057	0.400994	0.323613
12.8062	12.7052	0.398845	0.314939
12.8067	12.7047	0.39831	0.303038
12.8072	12.7042	0.397585	0.293069
12.8076	12.7038	0.400753	0.287555
12.8081	12.7033	0.399263	0.285043
12.8086	12.7028	0.397522	0.282437
12.8091	12.7024	0.399296	0.279991
12.8095	12.7019	0.396886	0.280372
12.81	12.7014	0.399692	0.282753
12.8105	12.701	0.398921	0.286574
12.8109	12.7005	0.398665	0.289992
12.8114	12.7	0.398352	0.294303
12.8119	12.6995	0.397948	0.29769
12.8124	12.6991	0.399412	0.302332
12.8128	12.6986	0.398393	0.308747
12.8133	12.6981	0.397501	0.311876
12.8138	12.6977	0.397449	0.315481
12.8142	12.6972	0.397573	0.316014
12.8147	12.6967	0.40058	0.319255
12.8152	12.6962	0.398378	0.323164
12.8157	12.6958	0.399038	0.323486
12.8161	12.6953	0.396423	0.321793
12.8166	12.6948	0.397842	0.319627
12.8171	12.6943	0.40006	0.319383
12.8176	12.6939	0.400225	0.316334
12.818	12.6934	0.395103	0.311048
12.8185	12.6929	0.397926	0.305561
12.819	12.6925	0.395367	0.297718
12.8194	12.692	0.398175	0.293533
12.8199	12.6915	0.397485	0.288869
12.8204	12.6911	0.397198	0.283334
12.8209	12.6906	0.396074	0.277696
12.8213	12.6901	0.396678	0.273773
12.8218	12.6897	0.398046	0.273896
12.8223	12.6892	0.397448	0.273133
12.8227	12.6887	0.394949	0.273456
12.8232	12.6883	0.395861	0.274537
12.8237	12.6878	0.394998	0.275293
12.8242	12.6873	0.396105	0.279512
12.8246	12.6868	0.396241	0.2852
12.8251	12.6864	0.394399	0.289166
12.8256	12.6859	0.394746	0.291939
12.8261	12.6854	0.394286	0.2956
12.8265	12.6849	0.395796	0.298555
12.827	12.6844	0.394482	0.303979
12.8275	12.684	0.392844	0.308075
12.8279	12.6835	0.392638	0.309754
12.8284	12.683	0.393293	0.311087
12.8289	12.6826	0.395786	0.314787
12.8294	12.6821	0.394378	0.319606
12.8298	12.6816	0.395296	0.323027
12.8303	12.6812	0.394099	0.3248
12.8308	12.6807	0.39423	0.327473
12.8312	12.6802	0.395946	0.330384
12.8317	12.6797	0.395996	0.334333
12.8322	12.6793	0.394435	0.337065
12.8327	12.6788	0.396125	0.337054
12.8331	12.6783	0.395661	0.338478
12.8336	12.6779	0.394903	0.33981
12.8341	12.6774	0.396705	0.342152
12.8346	12.6769	0.395193	0.341345
12.835	12.6764	0.394787	0.339902
12.8355	12.6759	0.394327	0.338959
12.836	12.6755	0.397261	0.340415
12.8364	12.675	0.395142	0.341808
12.8369	12.6745	0.394079	0.338891
12.8374	12.674	0.393979	0.335885
12.8379	12.6735	0.394042	0.334599
12.8383	12.6731	0.396158	0.334441
12.8388	12.6726	0.39546	0.335963
12.8393	12.6722	0.394082	0.333659
12.8397	12.6717	0.393891	0.330725
12.8402	12.6712	0.39376	0.327566
12.8407	12.6707	0.39543	0.325934
12.8412	12.6703	0.395087	0.326088
12.8416	12.6698	0.394455	0.323993
12.8421	12.6693	0.394491	0.320297
12.8426	12.6689	0.395392	0.316622
12.8431	12.6684	0.39588	0.314413
12.8435	12.6679	0.396114	0.313691
12.844	12.6675	0.394115	0.310854
12.8445	12.667	0.3946	0.306904
12.8449	12.6665	0.393347	0.30297
12.8454	12.666	0.394509	0.301297
12.8459	12.6656	0.394492	0.300749
12.8464	12.6651	0.392981	0.298105
12.8468	12.6646	0.393432	0.294181
12.8473	12.6641	0.393489	0.291012
12.8478	12.6637	0.394067	0.290323
12.8482	12.6632	0.394408	0.29103
12.8487	12.6627	0.393233	0.288311
12.8492	12.6623	0.392386	0.284376
12.8497	12.6618	0.392192	0.280583
12.8501	12.6613	0.394193	0.280559
12.8506	12.6609	0.394552	0.280854
12.8511	12.6604	0.390878	0.276671
12.8516	12.6599	0.391296	0.274252
12.852	12.6595	0.391289	0.271597
12.8525	12.659	0.390375	0.272381
12.853	12.6585	0.392299	0.271377
12.8534	12.6581	0.392043	0.270545
12.8539	12.6576	0.39016	0.268827
12.8544	12.6571	0.390788	0.26722
12.8549	12.6566	0.391666	0.268649
12.8553	12.6561	0.391667	0.270918
12.8558	12.6557	0.389047	0.270074
12.8563	12.6552	0.391807	0.270657
12.8567	12.6547	0.392528	0.271351
12.8572	12.6542	0.391556	0.273223
12.8577	12.6537	0.392607	0.276425
12.8582	12.6533	0.389638	0.279095
12.8586	12.6528	0.390143	0.279065
12.8591	12.6524	0.390565	0.280878
12.8596	12.6519	0.391752	0.283916
12.8601	12.6514	0.39138	0.287067
12.8605	12.6509	0.389393	0.28905
12.861	12.6505	0.389585	0.290919
12.8615	12.65	0.389093	0.293327
12.8619	12.6495	0.391427	0.295388
12.8624	12.649	0.391333	0.298084
12.8629	12.6486	0.389455	0.301335
12.8634	12.6481	0.388456	0.300754
12.8638	12.6476	0.387986	0.302651
12.8643	12.6472	0.388412	0.304325
12.8648	12.6467	0.386762	0.306696
12.8652	12.6462	0.385646	0.30748
12.8657	12.6457	0.385342	0.306892
12.8662	12.6452	0.385714	0.306672
12.8667	12.6448	0.386066	0.308431
12.8671	12.6443	0.387327	0.312298
12.8676	12.6438	0.385156	0.313865
12.8681	12.6433	0.384919	0.311574
12.8686	12.6429	0.38696	0.313571
12.869	12.6424	0.388803	0.314866
12.8695	12.642	0.388612	0.316485
12.87	12.6415	0.387852	0.316348
12.8704	12.641	0.387535	0.316616
12.8709	12.6405	0.388488	0.314084
12.8714	12.6401	0.388327	0.315995
12.8719	12.6396	0.388587	0.318504
12.8723	12.6391	0.386246	0.315924
12.8728	12.6387	0.386153	0.312379
12.8733	12.6382	0.388368	0.313051
12.8737	12.6377	0.387411	0.314314
12.8742	12.6373	0.386972	0.313739
12.8747	12.6368	0.386837	0.311193
12.8752	12.6363	0.386207	0.310711
12.8756	12.6358	0.388844	0.309649
12.8761	12.6354	0.391854	0.313169
12.8766	12.6349	0.388871	0.310891
12.8771	12.6344	0.385898	0.309087
12.8775	12.6339	0.38596	0.307821
12.878	12.6335	0.387134	0.307467
12.8785	12.633	0.389091	0.307196
12.8789	12.6325	0.385885	0.307466
12.8794	12.6321	0.385898	0.308996
12.8799	12.6316	0.385745	0.306218
12.8804	12.6311	0.385357	0.307902
12.8808	12.6306	0.387293	0.308302
12.8813	12.6302	0.385935	0.309595
12.8818	12.6297	0.386166	0.308916
12.8822	12.6292	0.384851	0.307025
12.8827	12.6288	0.386803	0.307863
12.8832	12.6283	0.387429	0.309748
12.8837	12.6278	0.386534	0.309767
12.8841	12.6274	0.384762	0.308825
12.8846	12.6269	0.384684	0.306448
12.8851	12.6264	0.384684	0.306389
12.8856	12.6259	0.385584	0.30792
12.886	12.6254	0.386314	0.308611
12.8865	12.6249	0.385526	0.30602
12.887	12.6245	0.384744	0.304206
12.8874	12.624	0.387392	0.304824
12.8879	12.6235	0.38888	0.305091
12.8884	12.6231	0.387224	0.303422
12.8889	12.6226	0.386246	0.304198
12.8893	12.6221	0.386027	0.30137
12.8898	12.6217	0.387126	0.300662
12.8903	12.6212	0.38721	0.302257
12.8907	12.6207	0.385915	0.301987
12.8912	12.6202	0.386954	0.301776
12.8917	12.6197	0.386822	0.29977
12.8922	12.6193	0.387803	0.298864
12.8926	12.6188	0.388903	0.300735
12.8931	12.6183	0.387853	0.301926
12.8936	12.6179	0.386162	0.302322
12.8941	12.6174	0.38609	0.29957
12.8945	12.6169	0.386626	0.29957
12.895	12.6164	0.387474	0.300004
12.8955	12.616	0.388279	0.302141
12.8959	12.6155	0.385367	0.300844
12.8964	12.615	0.386335	0.299015
12.8969	12.6145	0.387339	0.298531
12.8974	12.6141	0.387847	0.300966
12.8978	12.6136	0.388127	0.300624
12.8983	12.6131	0.385144	0.298992
12.8988	12.6127	0.385162	0.29765
