# 1304     AichiSR QXAFS
# Start     : 8.9544
# End       : 9.0544
# Dir       : Forward
# Points    : 300
# ScanTime  : 1.01549
# Date      : 13.04.23 22:31
# Ring Cur. : 25.7[mA]
12.7557	12.7558	0.406384	1.24194
12.7562	12.7553	0.406705	1.23904
12.7566	12.7548	0.405659	1.2358
12.7571	12.7543	0.408287	1.23764
12.7576	12.7539	0.407657	1.2386
12.7581	12.7534	0.405527	1.23725
12.7585	12.7529	0.40586	1.23841
12.759	12.7525	0.404906	1.23383
12.7595	12.752	0.40684	1.23271
12.7599	12.7516	0.405101	1.2368
12.7604	12.7511	0.405836	1.23789
12.7609	12.7506	0.404618	1.23574
12.7614	12.7501	0.405322	1.23329
12.7618	12.7497	0.406745	1.23352
12.7623	12.7492	0.40491	1.23328
12.7628	12.7487	0.406559	1.23685
12.7632	12.7483	0.404541	1.23337
12.7637	12.7478	0.405412	1.23167
12.7642	12.7473	0.405111	1.23177
12.7647	12.7469	0.406843	1.2324
12.7651	12.7464	0.404811	1.23371
12.7656	12.7459	0.403192	1.23043
12.7661	12.7454	0.405255	1.2269
12.7666	12.7449	0.404939	1.22705
12.767	12.7445	0.405128	1.22798
12.7675	12.744	0.404354	1.22825
12.768	12.7435	0.402899	1.22804
12.7684	12.7431	0.404733	1.22649
12.7689	12.7426	0.40541	1.22442
12.7694	12.7421	0.404641	1.22879
12.7699	12.7417	0.405286	1.23041
12.7703	12.7412	0.40368	1.2289
12.7708	12.7407	0.403153	1.22229
12.7713	12.7402	0.404431	1.22324
12.7717	12.7398	0.403395	1.22175
12.7722	12.7393	0.403512	1.223
12.7727	12.7388	0.402874	1.22134
12.7732	12.7384	0.403064	1.21754
12.7736	12.7379	0.404795	1.21991
12.7741	12.7374	0.405373	1.2181
12.7746	12.7369	0.401955	1.21999
12.7751	12.7365	0.402808	1.21614
12.7755	12.736	0.403317	1.21277
12.776	12.7355	0.404318	1.21561
12.7765	12.735	0.402814	1.21205
12.7769	12.7345	0.403101	1.21291
12.7774	12.7341	0.401608	1.20991
12.7779	12.7336	0.402243	1.20358
12.7784	12.7331	0.403296	1.20317
12.7788	12.7326	0.402889	1.20264
12.7793	12.7322	0.401757	1.20252
12.7798	12.7317	0.400158	1.19417
12.7802	12.7312	0.400849	1.19409
12.7807	12.7308	0.403243	1.18971
12.7812	12.7303	0.401763	1.18847
12.7817	12.7298	0.400326	1.18498
12.7821	12.7293	0.400038	1.1769
12.7826	12.7289	0.400418	1.1719
12.7831	12.7284	0.403713	1.16464
12.7836	12.7279	0.401934	1.15955
12.784	12.7275	0.399771	1.15225
12.7845	12.727	0.399536	1.13341
12.785	12.7265	0.399179	1.11749
12.7854	12.726	0.398969	1.10005
12.7859	12.7256	0.397301	1.06881
12.7864	12.7251	0.393902	1.03532
12.7869	12.7246	0.394358	0.987289
12.7873	12.7241	0.394418	0.930645
12.7878	12.7237	0.398803	0.870372
12.7883	12.7232	0.398168	0.809135
12.7887	12.7227	0.398634	0.752461
12.7892	12.7223	0.400551	0.70012
12.7897	12.7218	0.400861	0.662403
12.7902	12.7213	0.401429	0.639721
12.7906	12.7209	0.40212	0.62624
12.7911	12.7204	0.399671	0.619755
12.7916	12.7199	0.399499	0.617449
12.7921	12.7195	0.398876	0.621094
12.7925	12.719	0.399858	0.625716
12.793	12.7185	0.401392	0.632456
12.7935	12.7181	0.397598	0.635177
12.7939	12.7176	0.398659	0.634804
12.7944	12.7171	0.399282	0.631384
12.7949	12.7166	0.399512	0.623775
12.7954	12.7162	0.399454	0.617973
12.7958	12.7157	0.397573	0.607087
12.7963	12.7152	0.398846	0.593119
12.7968	12.7147	0.398629	0.582477
12.7972	12.7142	0.398928	0.571857
12.7977	12.7138	0.398819	0.56348
12.7982	12.7133	0.397576	0.553926
12.7987	12.7128	0.39798	0.541141
12.7991	12.7124	0.398023	0.529199
12.7996	12.7119	0.39759	0.518632
12.8001	12.7114	0.397558	0.507595
12.8006	12.711	0.397811	0.493219
12.801	12.7105	0.397954	0.478378
12.8015	12.71	0.398331	0.461844
12.802	12.7095	0.39857	0.445536
12.8024	12.7091	0.398717	0.431169
12.8029	12.7086	0.398326	0.413487
12.8034	12.7081	0.398186	0.393287
12.8039	12.7077	0.3982	0.377272
12.8043	12.7072	0.39802	0.36395
12.8048	12.7067	0.396102	0.350334
12.8053	12.7062	0.396612	0.336263
12.8057	12.7058	0.397889	0.322564
12.8062	12.7053	0.398444	0.31031
12.8067	12.7048	0.396726	0.301509
12.8072	12.7043	0.397343	0.295051
12.8076	12.7038	0.396607	0.288233
12.8081	12.7034	0.396413	0.281396
12.8086	12.7029	0.396786	0.279655
12.8091	12.7024	0.397286	0.279577
12.8095	12.702	0.395712	0.280901
12.81	12.7015	0.394399	0.282787
12.8105	12.701	0.396851	0.28394
12.8109	12.7005	0.396441	0.288359
12.8114	12.7001	0.39682	0.291516
12.8119	12.6996	0.397279	0.298673
12.8124	12.6991	0.39679	0.301858
12.8128	12.6987	0.395171	0.305299
12.8133	12.6982	0.395803	0.308578
12.8138	12.6977	0.396107	0.313336
12.8142	12.6973	0.395813	0.317538
12.8147	12.6968	0.394414	0.31815
12.8152	12.6963	0.394995	0.319682
12.8157	12.6958	0.395217	0.319066
12.8161	12.6954	0.395581	0.319662
12.8166	12.6949	0.396221	0.320923
12.8171	12.6944	0.396334	0.317418
12.8176	12.6939	0.393854	0.312413
12.818	12.6935	0.395423	0.307708
12.8185	12.693	0.395137	0.304397
12.819	12.6925	0.394725	0.298914
12.8194	12.6921	0.392739	0.292687
12.8199	12.6916	0.394486	0.286296
12.8204	12.6911	0.394185	0.27912
12.8209	12.6907	0.393425	0.276438
12.8213	12.6902	0.393292	0.274609
12.8218	12.6897	0.392633	0.270763
12.8223	12.6893	0.392842	0.269709
12.8227	12.6888	0.395017	0.269769
12.8232	12.6883	0.393237	0.270921
12.8237	12.6879	0.393993	0.275677
12.8242	12.6874	0.390359	0.278467
12.8246	12.6869	0.391836	0.280419
12.8251	12.6864	0.39221	0.283689
12.8256	12.686	0.391201	0.290513
12.8261	12.6855	0.390949	0.293695
12.8265	12.685	0.390172	0.298173
12.827	12.6845	0.390656	0.300374
12.8275	12.684	0.39245	0.303363
12.8279	12.6836	0.391043	0.306778
12.8284	12.6831	0.390496	0.312156
12.8289	12.6826	0.390286	0.316037
12.8294	12.6822	0.389254	0.315616
12.8298	12.6817	0.392286	0.319144
12.8303	12.6812	0.395952	0.325799
12.8308	12.6807	0.393062	0.327281
12.8312	12.6803	0.391727	0.329204
12.8317	12.6798	0.391395	0.329197
12.8322	12.6793	0.392428	0.332397
12.8327	12.6789	0.392486	0.334932
12.8331	12.6784	0.391267	0.337888
12.8336	12.6779	0.392537	0.339398
12.8341	12.6774	0.391534	0.338383
12.8346	12.677	0.39197	0.337395
12.835	12.6765	0.392387	0.337516
12.8355	12.676	0.392366	0.3384
12.836	12.6755	0.390892	0.336975
12.8364	12.675	0.391229	0.334912
12.8369	12.6746	0.39264	0.334139
12.8374	12.6741	0.392542	0.334701
12.8379	12.6736	0.390216	0.334932
12.8383	12.6731	0.390636	0.333161
12.8388	12.6727	0.391312	0.331386
12.8393	12.6722	0.393222	0.3284
12.8397	12.6718	0.393017	0.327755
12.8402	12.6713	0.392325	0.328875
12.8407	12.6708	0.391524	0.326127
12.8412	12.6703	0.39009	0.322059
12.8416	12.6699	0.394054	0.319446
12.8421	12.6694	0.39332	0.317886
12.8426	12.6689	0.391748	0.317901
12.8431	12.6685	0.391584	0.314157
12.8435	12.668	0.391908	0.310695
12.844	12.6675	0.393875	0.307526
12.8445	12.6671	0.393582	0.306229
12.8449	12.6666	0.392784	0.304649
12.8454	12.6661	0.393534	0.302635
12.8459	12.6656	0.391879	0.297717
12.8464	12.6651	0.393369	0.295517
12.8468	12.6647	0.393622	0.295749
12.8473	12.6642	0.392389	0.294096
12.8478	12.6637	0.39208	0.291477
12.8482	12.6633	0.393396	0.28753
12.8487	12.6628	0.394816	0.286982
12.8492	12.6623	0.393168	0.285422
12.8497	12.6619	0.3916	0.283511
12.8501	12.6614	0.3951	0.281297
12.8506	12.6609	0.392838	0.278211
12.8511	12.6604	0.393714	0.27629
12.8516	12.66	0.393832	0.276795
12.852	12.6595	0.393248	0.275324
12.8525	12.6591	0.391873	0.27462
12.853	12.6586	0.39292	0.271859
12.8534	12.6581	0.394925	0.270326
12.8539	12.6576	0.392653	0.270245
12.8544	12.6572	0.393525	0.271897
12.8549	12.6567	0.393867	0.270639
12.8553	12.6562	0.392176	0.268877
12.8558	12.6557	0.394323	0.27101
12.8563	12.6553	0.394131	0.273991
12.8567	12.6548	0.392584	0.274232
12.8572	12.6543	0.390773	0.275858
12.8577	12.6538	0.394448	0.276778
12.8582	12.6533	0.395526	0.279037
12.8586	12.6529	0.393721	0.281756
12.8591	12.6524	0.394083	0.286535
12.8596	12.6519	0.393549	0.2871
12.8601	12.6515	0.394143	0.288141
12.8605	12.651	0.395073	0.290558
12.861	12.6505	0.394318	0.294551
12.8615	12.65	0.393861	0.297735
12.8619	12.6496	0.39411	0.299029
12.8624	12.6491	0.393845	0.299946
12.8629	12.6486	0.395114	0.303685
12.8634	12.6482	0.392916	0.305693
12.8638	12.6477	0.394249	0.308554
12.8643	12.6472	0.393719	0.309297
12.8648	12.6467	0.39142	0.308095
12.8652	12.6463	0.391377	0.310845
12.8657	12.6458	0.391923	0.312126
12.8662	12.6453	0.389833	0.314734
12.8667	12.6448	0.389114	0.31962
12.8671	12.6443	0.389358	0.31483
12.8676	12.6439	0.393261	0.316674
12.8681	12.6434	0.392404	0.31981
12.8686	12.6429	0.392496	0.320018
12.869	12.6425	0.393227	0.319672
12.8695	12.642	0.392823	0.319401
12.87	12.6416	0.395432	0.320262
12.8704	12.6411	0.394761	0.321808
12.8709	12.6406	0.394014	0.32269
12.8714	12.6401	0.39426	0.321035
12.8719	12.6397	0.393746	0.319472
12.8723	12.6392	0.394545	0.319925
12.8728	12.6387	0.39542	0.3208
12.8733	12.6383	0.393577	0.321205
12.8737	12.6378	0.393884	0.318875
12.8742	12.6373	0.393715	0.316235
12.8747	12.6368	0.394263	0.31648
12.8752	12.6364	0.394759	0.318126
12.8756	12.6359	0.393471	0.31702
12.8761	12.6354	0.392391	0.315407
12.8766	12.6349	0.393281	0.31351
12.8771	12.6345	0.39547	0.314122
12.8775	12.634	0.394025	0.3144
12.878	12.6335	0.392951	0.314512
12.8785	12.6331	0.393759	0.314583
12.8789	12.6326	0.391314	0.312068
12.8794	12.6321	0.393348	0.313274
12.8799	12.6317	0.393703	0.313903
12.8804	12.6312	0.393575	0.315542
12.8808	12.6307	0.391899	0.312578
12.8813	12.6302	0.393118	0.313242
12.8818	12.6298	0.394443	0.31333
12.8822	12.6293	0.393061	0.314967
12.8827	12.6288	0.394127	0.31695
12.8832	12.6284	0.391334	0.316096
12.8837	12.6279	0.392861	0.313028
12.8841	12.6274	0.393598	0.314386
12.8846	12.6269	0.394157	0.315522
12.8851	12.6265	0.39333	0.315331
12.8856	12.626	0.392401	0.313298
12.886	12.6255	0.394564	0.312693
12.8865	12.625	0.394833	0.312035
12.887	12.6245	0.393767	0.312767
12.8874	12.6241	0.393995	0.311882
12.8879	12.6236	0.394988	0.31021
12.8884	12.6231	0.394238	0.307539
12.8889	12.6226	0.3934	0.308028
12.8893	12.6222	0.39266	0.309108
12.8898	12.6217	0.391735	0.307545
12.8903	12.6212	0.391912	0.306652
12.8907	12.6208	0.392068	0.305389
12.8912	12.6203	0.393105	0.306215
12.8917	12.6198	0.393218	0.306436
12.8922	12.6193	0.392588	0.307426
12.8926	12.6189	0.391827	0.305298
12.8931	12.6184	0.391939	0.304017
12.8936	12.6179	0.392299	0.304859
12.8941	12.6175	0.391241	0.306306
12.8945	12.617	0.390508	0.304784
12.895	12.6165	0.389156	0.304097
12.8955	12.616	0.390992	0.30336
12.8959	12.6156	0.391255	0.303829
12.8964	12.6151	0.390704	0.304907
12.8969	12.6146	0.390614	0.303974
12.8974	12.6141	0.391164	0.303268
12.8978	12.6137	0.390105	0.300953
12.8983	12.6132	0.390546	0.300714
12.8988	12.6127	0.390804	0.302195
