# 1304     AichiSR QXAFS
# Start     : 8.9544
# End       : 9.0544
# Dir       : Forward
# Points    : 300
# ScanTime  : 1.01549
# Date      : 13.04.23 22:31
# Ring Cur. : 25.7[mA]
12.7557	12.7558	0.403408	1.23033
12.7562	12.7553	0.401473	1.23088
12.7566	12.7548	0.402131	1.22723
12.7571	12.7543	0.401631	1.22402
12.7576	12.7539	0.402347	1.22403
12.7581	12.7534	0.402645	1.22576
12.7585	12.7529	0.400622	1.22754
12.759	12.7525	0.401899	1.22802
12.7595	12.752	0.401435	1.22311
12.7599	12.7516	0.402385	1.21995
12.7604	12.7511	0.401844	1.22395
12.7609	12.7506	0.401041	1.22366
12.7614	12.7501	0.400982	1.22183
12.7618	12.7497	0.400279	1.21963
12.7623	12.7492	0.401035	1.21753
12.7628	12.7487	0.401864	1.22273
12.7632	12.7483	0.399954	1.22303
12.7637	12.7478	0.400324	1.21861
12.7642	12.7473	0.400687	1.21688
12.7647	12.7469	0.402151	1.2174
12.7651	12.7464	0.400892	1.21994
12.7656	12.7459	0.399195	1.21861
12.7661	12.7454	0.400464	1.21981
12.7666	12.745	0.398474	1.21632
12.767	12.7445	0.401312	1.21686
12.7675	12.744	0.400586	1.21838
12.768	12.7435	0.39962	1.21971
12.7684	12.7431	0.398049	1.21444
12.7689	12.7426	0.399915	1.21146
12.7694	12.7421	0.400996	1.21277
12.7699	12.7417	0.400704	1.21594
12.7703	12.7412	0.400476	1.21128
12.7708	12.7407	0.397606	1.20892
12.7713	12.7402	0.4004	1.20647
12.7717	12.7398	0.399205	1.20703
12.7722	12.7393	0.399601	1.20985
12.7727	12.7388	0.397987	1.20913
12.7732	12.7384	0.40027	1.20609
12.7736	12.7379	0.398896	1.20252
12.7741	12.7374	0.402219	1.21229
12.7746	12.7369	0.402869	1.21806
12.7751	12.7365	0.399004	1.20569
12.7755	12.736	0.398448	1.20216
12.776	12.7355	0.399235	1.19792
12.7765	12.735	0.399464	1.19744
12.7769	12.7345	0.399275	1.19891
12.7774	12.7341	0.39806	1.198
12.7779	12.7336	0.398163	1.19366
12.7784	12.7331	0.396622	1.18844
12.7788	12.7327	0.398688	1.19054
12.7793	12.7322	0.397667	1.18833
12.7798	12.7317	0.397459	1.1862
12.7802	12.7312	0.396092	1.18104
12.7807	12.7308	0.396764	1.17749
12.7812	12.7303	0.396883	1.17348
12.7817	12.7298	0.398988	1.17239
12.7821	12.7294	0.396088	1.17105
12.7826	12.7289	0.397928	1.16338
12.7831	12.7284	0.396488	1.15543
12.7836	12.7279	0.396542	1.14814
12.784	12.7275	0.397721	1.14454
12.7845	12.727	0.394479	1.13017
12.785	12.7265	0.395486	1.11267
12.7854	12.726	0.394997	1.09218
12.7859	12.7256	0.393868	1.06527
12.7864	12.7251	0.394027	1.03434
12.7869	12.7246	0.391795	0.989785
12.7873	12.7241	0.391634	0.933142
12.7878	12.7237	0.394903	0.871185
12.7883	12.7232	0.395823	0.812068
12.7887	12.7227	0.397724	0.759123
12.7892	12.7223	0.39766	0.704627
12.7897	12.7218	0.399402	0.663584
12.7902	12.7214	0.399335	0.64009
12.7906	12.7209	0.398928	0.624103
12.7911	12.7204	0.398441	0.618828
12.7916	12.7199	0.398976	0.61945
12.7921	12.7195	0.399333	0.619875
12.7925	12.719	0.399966	0.621395
12.793	12.7185	0.399333	0.629442
12.7935	12.7181	0.398877	0.636191
12.7939	12.7176	0.398864	0.63555
12.7944	12.7171	0.398108	0.631335
12.7949	12.7166	0.400045	0.627663
12.7954	12.7162	0.399639	0.61967
12.7958	12.7157	0.400563	0.608941
12.7963	12.7152	0.398876	0.600814
12.7968	12.7147	0.399018	0.58449
12.7972	12.7143	0.39958	0.572966
12.7977	12.7138	0.399707	0.565703
12.7982	12.7133	0.399089	0.555915
12.7987	12.7128	0.398399	0.545506
12.7991	12.7124	0.398159	0.531465
12.7996	12.7119	0.399999	0.521049
12.8001	12.7115	0.400262	0.507362
12.8006	12.711	0.400535	0.497958
12.801	12.7105	0.400019	0.483377
12.8015	12.71	0.400122	0.464719
12.802	12.7095	0.401495	0.450104
12.8024	12.7091	0.400816	0.43211
12.8029	12.7086	0.402422	0.419235
12.8034	12.7082	0.401358	0.400808
12.8039	12.7077	0.400084	0.382245
12.8043	12.7072	0.400933	0.366672
12.8048	12.7067	0.40124	0.352274
12.8053	12.7062	0.400929	0.340723
12.8057	12.7058	0.399772	0.328265
12.8062	12.7053	0.400173	0.313395
12.8067	12.7048	0.401447	0.303067
12.8072	12.7043	0.400989	0.297353
12.8076	12.7038	0.401556	0.292443
12.8081	12.7034	0.400933	0.28656
12.8086	12.7029	0.399258	0.280991
12.8091	12.7024	0.401401	0.280932
12.8095	12.702	0.401175	0.281924
12.81	12.7015	0.400147	0.2847
12.8105	12.701	0.400907	0.287502
12.8109	12.7005	0.399998	0.288514
12.8114	12.7001	0.402262	0.293959
12.8119	12.6996	0.400935	0.29943
12.8124	12.6991	0.400668	0.30598
12.8128	12.6987	0.40114	0.309326
12.8133	12.6982	0.399173	0.311543
12.8138	12.6977	0.401663	0.316156
12.8142	12.6973	0.401506	0.319673
12.8147	12.6968	0.40054	0.323228
12.8152	12.6963	0.401625	0.325542
12.8157	12.6958	0.400548	0.323309
12.8161	12.6954	0.401873	0.324177
12.8166	12.6949	0.400287	0.324145
12.8171	12.6944	0.399781	0.324314
12.8176	12.6939	0.400446	0.319322
12.818	12.6935	0.400564	0.313427
12.8185	12.693	0.402301	0.308113
12.819	12.6925	0.401517	0.303647
12.8194	12.6921	0.400261	0.300145
12.8199	12.6916	0.399657	0.293381
12.8204	12.6911	0.400287	0.286499
12.8209	12.6907	0.401798	0.281016
12.8213	12.6902	0.400205	0.279551
12.8218	12.6897	0.401192	0.277266
12.8223	12.6893	0.401496	0.275249
12.8227	12.6888	0.400153	0.274719
12.8232	12.6883	0.402477	0.276186
12.8237	12.6879	0.400884	0.279046
12.8242	12.6874	0.398744	0.283495
12.8246	12.6869	0.400095	0.28677
12.8251	12.6864	0.397132	0.289667
12.8256	12.686	0.400522	0.294367
12.8261	12.6855	0.39907	0.298951
12.8265	12.685	0.398609	0.305047
12.827	12.6845	0.39862	0.306819
12.8275	12.684	0.399208	0.31003
12.8279	12.6836	0.399634	0.311829
12.8284	12.6831	0.397966	0.316048
12.8289	12.6826	0.397237	0.319942
12.8294	12.6822	0.397886	0.322031
12.8298	12.6817	0.399134	0.32417
12.8303	12.6812	0.400924	0.327745
12.8308	12.6807	0.399191	0.330957
12.8312	12.6803	0.401357	0.336419
12.8317	12.6798	0.401122	0.338468
12.8322	12.6793	0.400579	0.33989
12.8327	12.6789	0.400278	0.342317
12.8331	12.6784	0.401704	0.343102
12.8336	12.6779	0.400799	0.345115
12.8341	12.6774	0.3998	0.345894
12.8346	12.677	0.400464	0.34388
12.835	12.6765	0.399028	0.344278
12.8355	12.676	0.400091	0.345307
12.836	12.6755	0.4008	0.346433
12.8364	12.675	0.3987	0.343182
12.8369	12.6746	0.399478	0.341611
12.8374	12.6741	0.400607	0.342799
12.8379	12.6736	0.402029	0.342175
12.8383	12.6731	0.398682	0.341161
12.8388	12.6727	0.398925	0.337308
12.8393	12.6722	0.399644	0.335811
12.8397	12.6718	0.399991	0.333497
12.8402	12.6713	0.40038	0.333366
12.8407	12.6708	0.398822	0.333084
12.8412	12.6703	0.399506	0.329118
12.8416	12.6699	0.399145	0.325763
12.8421	12.6694	0.400118	0.324399
12.8426	12.6689	0.399913	0.321836
12.8431	12.6685	0.398998	0.321024
12.8435	12.668	0.397854	0.317205
12.844	12.6675	0.399435	0.312911
12.8445	12.6671	0.399975	0.31136
12.8449	12.6666	0.399811	0.309909
12.8454	12.6661	0.398653	0.309226
12.8459	12.6656	0.399376	0.304492
12.8464	12.6652	0.398127	0.301825
12.8468	12.6647	0.399652	0.299021
12.8473	12.6642	0.39828	0.297849
12.8478	12.6637	0.397946	0.296557
12.8482	12.6633	0.397918	0.293043
12.8487	12.6628	0.399541	0.289498
12.8492	12.6623	0.399025	0.287813
12.8497	12.6619	0.39781	0.287103
12.8501	12.6614	0.398458	0.285583
12.8506	12.6609	0.397584	0.283094
12.8511	12.6605	0.396606	0.279503
12.8516	12.66	0.399	0.279451
12.852	12.6595	0.397327	0.278204
12.8525	12.6591	0.396428	0.27699
12.853	12.6586	0.396735	0.274842
12.8534	12.6581	0.395372	0.273096
12.8539	12.6577	0.397851	0.273016
12.8544	12.6572	0.397461	0.274825
12.8549	12.6567	0.396502	0.274537
12.8553	12.6562	0.396598	0.273573
12.8558	12.6557	0.397081	0.272844
12.8563	12.6553	0.397442	0.274414
12.8567	12.6548	0.396852	0.277195
12.8572	12.6543	0.39478	0.278649
12.8577	12.6538	0.396212	0.27994
12.8582	12.6534	0.396169	0.280767
12.8586	12.6529	0.395932	0.283162
12.8591	12.6524	0.396976	0.287722
12.8596	12.652	0.39564	0.288179
12.8601	12.6515	0.396382	0.290811
12.8605	12.651	0.39772	0.292289
12.861	12.6505	0.398336	0.29439
12.8615	12.65	0.396983	0.298593
12.8619	12.6496	0.395186	0.300762
12.8624	12.6491	0.396353	0.302688
12.8629	12.6486	0.39732	0.304068
12.8634	12.6482	0.395761	0.30671
12.8638	12.6477	0.395013	0.309501
12.8643	12.6472	0.394701	0.311401
12.8648	12.6467	0.39417	0.309266
12.8652	12.6463	0.392694	0.311072
12.8657	12.6458	0.393135	0.311989
12.8662	12.6453	0.391663	0.315373
12.8667	12.6448	0.391054	0.316451
12.8671	12.6443	0.392952	0.315409
12.8676	12.6439	0.39351	0.318174
12.8681	12.6434	0.393573	0.319196
12.8686	12.6429	0.394309	0.321371
12.869	12.6425	0.392491	0.321853
12.8695	12.642	0.39411	0.321192
12.87	12.6416	0.39477	0.320429
12.8704	12.6411	0.396708	0.321176
12.8709	12.6406	0.395605	0.323421
12.8714	12.6401	0.392721	0.322414
12.8719	12.6397	0.396063	0.320324
12.8723	12.6392	0.394037	0.321954
12.8728	12.6387	0.39321	0.318879
12.8733	12.6383	0.394927	0.321313
12.8737	12.6378	0.393821	0.319203
12.8742	12.6373	0.393603	0.317456
12.8747	12.6369	0.395062	0.316345
12.8752	12.6364	0.39384	0.317254
12.8756	12.6359	0.39402	0.317965
12.8761	12.6354	0.392689	0.317129
12.8766	12.6349	0.392625	0.316055
12.8771	12.6345	0.393702	0.312858
12.8775	12.634	0.392795	0.313415
12.878	12.6335	0.394155	0.31316
12.8785	12.6331	0.393294	0.314098
12.8789	12.6326	0.393992	0.313341
12.8794	12.6321	0.394511	0.31203
12.8799	12.6317	0.393011	0.313403
12.8804	12.6312	0.394364	0.315728
12.8808	12.6307	0.392594	0.314692
12.8813	12.6302	0.394467	0.313658
12.8818	12.6298	0.394322	0.312602
12.8822	12.6293	0.393744	0.3131
12.8827	12.6288	0.39405	0.316332
12.8832	12.6284	0.392698	0.315939
12.8837	12.6279	0.392443	0.312443
12.8841	12.6274	0.393157	0.313149
12.8846	12.6269	0.392785	0.314342
12.8851	12.6265	0.392276	0.314392
12.8856	12.626	0.391287	0.313451
12.886	12.6255	0.392218	0.311476
12.8865	12.625	0.392728	0.310781
12.887	12.6245	0.391042	0.311426
12.8874	12.6241	0.391352	0.311342
12.8879	12.6236	0.392188	0.310094
12.8884	12.6231	0.391866	0.308066
12.8889	12.6227	0.392464	0.30664
12.8893	12.6222	0.391611	0.307219
12.8898	12.6217	0.390612	0.306915
12.8903	12.6212	0.389711	0.305535
12.8907	12.6208	0.390181	0.304043
12.8912	12.6203	0.391767	0.302806
12.8917	12.6198	0.391516	0.304269
12.8922	12.6193	0.390304	0.304812
12.8926	12.6189	0.389733	0.304862
12.8931	12.6184	0.390453	0.301117
12.8936	12.6179	0.390955	0.301567
12.8941	12.6175	0.391731	0.302833
12.8945	12.617	0.389928	0.303893
12.895	12.6165	0.387858	0.304294
12.8955	12.616	0.38847	0.301792
12.8959	12.6156	0.390195	0.303503
12.8964	12.6151	0.390401	0.30252
12.8969	12.6146	0.388943	0.303133
12.8974	12.6141	0.38865	0.302674
12.8978	12.6137	0.389236	0.300646
12.8983	12.6132	0.390824	0.29915
12.8988	12.6127	0.390089	0.299547
