# 1304     AichiSR QXAFS
# Start     : 8.9544
# End       : 9.0544
# Dir       : Forward
# Points    : 300
# ScanTime  : 1.01549
# Date      : 13.04.23 22:22
# Ring Cur. : 25.5[mA]
12.7557	12.7557	0.397327	1.21103
12.7562	12.7552	0.401255	1.22212
12.7566	12.7548	0.399917	1.21693
12.7571	12.7543	0.39622	1.21149
12.7576	12.7538	0.396966	1.20836
12.7581	12.7533	0.39719	1.20442
12.7585	12.7529	0.398171	1.20607
12.759	12.7524	0.39827	1.20918
12.7595	12.752	0.396176	1.21176
12.7599	12.7515	0.397033	1.2068
12.7604	12.751	0.397308	1.20454
12.7609	12.7505	0.397955	1.20694
12.7614	12.7501	0.396173	1.20742
12.7618	12.7496	0.396592	1.20798
12.7623	12.7491	0.395659	1.20277
12.7628	12.7487	0.395872	1.20489
12.7632	12.7482	0.396528	1.20454
12.7637	12.7477	0.396081	1.20895
12.7642	12.7473	0.394268	1.20424
12.7647	12.7468	0.39681	1.20333
12.7651	12.7463	0.395801	1.20224
12.7656	12.7459	0.396984	1.20311
12.7661	12.7454	0.396399	1.20515
12.7666	12.7449	0.394728	1.20718
12.767	12.7444	0.395784	1.20388
12.7675	12.7439	0.397438	1.20361
12.768	12.7435	0.396042	1.20373
12.7684	12.743	0.397768	1.20524
12.7689	12.7425	0.394194	1.20466
12.7694	12.7421	0.396127	1.20455
12.7699	12.7416	0.397492	1.20505
12.7703	12.7411	0.396854	1.20454
12.7708	12.7406	0.397739	1.20547
12.7713	12.7402	0.396572	1.20608
12.7717	12.7397	0.396139	1.2011
12.7722	12.7392	0.398096	1.20318
12.7727	12.7388	0.399105	1.20331
12.7732	12.7383	0.398081	1.20516
12.7736	12.7378	0.395592	1.20212
12.7741	12.7374	0.397958	1.19875
12.7746	12.7369	0.399729	1.19884
12.7751	12.7364	0.398182	1.20113
12.7755	12.7359	0.399389	1.20389
12.776	12.7354	0.397014	1.20104
12.7765	12.735	0.397287	1.19709
12.7769	12.7345	0.399572	1.19503
12.7774	12.734	0.399087	1.1941
12.7779	12.7335	0.399462	1.19359
12.7784	12.7331	0.395559	1.19097
12.7788	12.7326	0.398426	1.18845
12.7793	12.7321	0.399423	1.18606
12.7798	12.7317	0.399498	1.1845
12.7802	12.7312	0.400225	1.18559
12.7807	12.7307	0.398109	1.18129
12.7812	12.7302	0.397598	1.17633
12.7817	12.7297	0.398824	1.17258
12.7821	12.7293	0.398062	1.16966
12.7826	12.7288	0.39868	1.16574
12.7831	12.7284	0.396919	1.15769
12.7836	12.7279	0.397145	1.14709
12.784	12.7274	0.398625	1.13906
12.7845	12.7269	0.397604	1.12332
12.785	12.7265	0.397428	1.11268
12.7854	12.726	0.395687	1.08985
12.7859	12.7255	0.39389	1.06034
12.7864	12.725	0.394453	1.02111
12.7869	12.7245	0.39423	0.978121
12.7873	12.7241	0.393428	0.926853
12.7878	12.7236	0.394379	0.866633
12.7883	12.7231	0.39652	0.800258
12.7887	12.7227	0.398418	0.745273
12.7892	12.7222	0.399538	0.699107
12.7897	12.7218	0.399256	0.663749
12.7902	12.7213	0.398172	0.639267
12.7906	12.7208	0.398266	0.623433
12.7911	12.7203	0.399205	0.617131
12.7916	12.7199	0.398971	0.617599
12.7921	12.7194	0.400861	0.621249
12.7925	12.7189	0.399389	0.626231
12.793	12.7185	0.397529	0.629495
12.7935	12.718	0.401653	0.631442
12.7939	12.7175	0.399417	0.633235
12.7944	12.7171	0.399335	0.63205
12.7949	12.7166	0.399076	0.627387
12.7954	12.7161	0.399632	0.612779
12.7958	12.7156	0.399403	0.60417
12.7963	12.7151	0.398751	0.593456
12.7968	12.7147	0.399595	0.583144
12.7972	12.7142	0.397365	0.572307
12.7977	12.7137	0.397303	0.559486
12.7982	12.7132	0.400191	0.551369
12.7987	12.7128	0.399272	0.542389
12.7991	12.7123	0.39883	0.531434
12.7996	12.7118	0.399838	0.519973
12.8001	12.7114	0.399323	0.505328
12.8006	12.7109	0.400718	0.491895
12.801	12.7104	0.399871	0.477347
12.8015	12.7099	0.399175	0.46227
12.802	12.7095	0.399585	0.446981
12.8024	12.709	0.398765	0.427707
12.8029	12.7086	0.399514	0.412399
12.8034	12.7081	0.398548	0.394497
12.8039	12.7076	0.401074	0.382344
12.8043	12.7071	0.398239	0.364944
12.8048	12.7066	0.399312	0.347401
12.8053	12.7062	0.399576	0.334087
12.8057	12.7057	0.399808	0.322407
12.8062	12.7052	0.399203	0.314976
12.8067	12.7047	0.399852	0.30401
12.8072	12.7042	0.399161	0.294371
12.8076	12.7038	0.40058	0.288855
12.8081	12.7033	0.398327	0.284272
12.8086	12.7028	0.399102	0.282667
12.8091	12.7024	0.399065	0.281352
12.8095	12.7019	0.398387	0.280056
12.81	12.7014	0.399852	0.282402
12.8105	12.7009	0.39842	0.28605
12.8109	12.7005	0.399076	0.2913
12.8114	12.7	0.397912	0.294508
12.8119	12.6995	0.398901	0.297216
12.8124	12.6991	0.400624	0.30337
12.8128	12.6986	0.398017	0.30801
12.8133	12.6981	0.397834	0.313715
12.8138	12.6977	0.398465	0.31637
12.8142	12.6972	0.397718	0.31776
12.8147	12.6967	0.399611	0.320692
12.8152	12.6962	0.399291	0.323634
12.8157	12.6958	0.398203	0.324547
12.8161	12.6953	0.397432	0.323612
12.8166	12.6948	0.398017	0.321218
12.8171	12.6943	0.399615	0.317252
12.8176	12.6939	0.398736	0.315501
12.818	12.6934	0.397196	0.312323
12.8185	12.6929	0.397568	0.305677
12.819	12.6925	0.397389	0.299912
12.8194	12.692	0.398659	0.293843
12.8199	12.6915	0.39802	0.288932
12.8204	12.6911	0.398182	0.285926
12.8209	12.6906	0.398375	0.279976
12.8213	12.6901	0.397961	0.275518
12.8218	12.6897	0.398297	0.274122
12.8223	12.6892	0.396823	0.273867
12.8227	12.6887	0.396644	0.275054
12.8232	12.6883	0.396356	0.275834
12.8237	12.6878	0.396317	0.275859
12.8242	12.6873	0.398653	0.280757
12.8246	12.6868	0.394954	0.28501
12.8251	12.6864	0.394448	0.289653
12.8256	12.6859	0.394539	0.294533
12.8261	12.6854	0.394609	0.297671
12.8265	12.6849	0.396413	0.299965
12.827	12.6844	0.396767	0.304943
12.8275	12.684	0.39544	0.30858
12.8279	12.6835	0.394425	0.312229
12.8284	12.683	0.394287	0.31316
12.8289	12.6826	0.395053	0.317255
12.8294	12.6821	0.397384	0.319711
12.8298	12.6816	0.395271	0.324385
12.8303	12.6812	0.394549	0.324975
12.8308	12.6807	0.395805	0.328139
12.8312	12.6802	0.397298	0.331325
12.8317	12.6797	0.397316	0.336043
12.8322	12.6793	0.397795	0.338406
12.8327	12.6788	0.395937	0.339798
12.8331	12.6783	0.394954	0.338558
12.8336	12.6779	0.398544	0.340495
12.8341	12.6774	0.396511	0.344375
12.8346	12.6769	0.396672	0.344373
12.835	12.6764	0.395982	0.342617
12.8355	12.6759	0.39499	0.340035
12.836	12.6755	0.397218	0.339776
12.8364	12.675	0.396788	0.339707
12.8369	12.6745	0.396107	0.340156
12.8374	12.674	0.395386	0.337481
12.8379	12.6735	0.39451	0.335642
12.8383	12.6731	0.396217	0.33567
12.8388	12.6726	0.396165	0.337176
12.8393	12.6722	0.394966	0.333983
12.8397	12.6717	0.395793	0.331392
12.8402	12.6712	0.394387	0.328367
12.8407	12.6707	0.395708	0.328111
12.8412	12.6703	0.395971	0.325789
12.8416	12.6698	0.394696	0.324801
12.8421	12.6693	0.396298	0.320998
12.8426	12.6689	0.394518	0.316305
12.8431	12.6684	0.396719	0.314467
12.8435	12.6679	0.395968	0.313969
12.844	12.6675	0.394826	0.312796
12.8445	12.667	0.394127	0.307882
12.8449	12.6665	0.393556	0.304092
12.8454	12.666	0.395738	0.301441
12.8459	12.6656	0.396064	0.301057
12.8464	12.6651	0.395357	0.300167
12.8468	12.6646	0.394952	0.295757
12.8473	12.6641	0.392272	0.293562
12.8478	12.6637	0.394882	0.291492
12.8482	12.6632	0.396232	0.291872
12.8487	12.6627	0.393402	0.289741
12.8492	12.6623	0.393105	0.285871
12.8497	12.6618	0.393899	0.2826
12.8501	12.6613	0.39483	0.281041
12.8506	12.6609	0.393954	0.27968
12.8511	12.6604	0.390566	0.279476
12.8516	12.6599	0.393088	0.275815
12.852	12.6594	0.391354	0.273357
12.8525	12.659	0.393846	0.271953
12.853	12.6585	0.393558	0.272195
12.8534	12.6581	0.39297	0.271158
12.8539	12.6576	0.39364	0.270221
12.8544	12.6571	0.39305	0.26896
12.8549	12.6566	0.393777	0.269789
12.8553	12.6561	0.393708	0.270454
12.8558	12.6557	0.39084	0.271846
12.8563	12.6552	0.391091	0.272279
12.8567	12.6547	0.392495	0.272093
12.8572	12.6542	0.393242	0.274638
12.8577	12.6537	0.391488	0.276813
12.8582	12.6533	0.392289	0.279728
12.8586	12.6528	0.393314	0.281243
12.8591	12.6524	0.391655	0.281546
12.8596	12.6519	0.393325	0.276898
12.8601	12.6514	0.39403	0.295168
12.8605	12.6509	0.392133	0.291126
12.861	12.6505	0.393592	0.292897
12.8615	12.65	0.392182	0.294231
12.8619	12.6495	0.39267	0.296782
12.8624	12.649	0.392783	0.302306
12.8629	12.6486	0.391455	0.304039
12.8634	12.6481	0.391111	0.303358
12.8638	12.6476	0.39107	0.304275
12.8643	12.6472	0.391128	0.306432
12.8648	12.6467	0.390405	0.309167
12.8652	12.6462	0.387114	0.310389
12.8657	12.6457	0.387417	0.310334
12.8662	12.6452	0.386253	0.309235
12.8667	12.6447	0.387917	0.311631
12.8671	12.6443	0.388218	0.314275
12.8676	12.6438	0.388581	0.315406
12.8681	12.6433	0.389116	0.315944
12.8686	12.6429	0.389783	0.315599
12.869	12.6424	0.390565	0.317203
12.8695	12.642	0.390564	0.319572
12.87	12.6415	0.388554	0.318102
12.8704	12.641	0.389637	0.318192
12.8709	12.6405	0.390829	0.317568
12.8714	12.6401	0.391229	0.316992
12.8719	12.6396	0.390485	0.319239
12.8723	12.6391	0.388367	0.318026
12.8728	12.6387	0.38972	0.317252
12.8733	12.6382	0.390147	0.315427
12.8737	12.6377	0.389903	0.316283
12.8742	12.6373	0.391677	0.315664
12.8747	12.6368	0.389509	0.315124
12.8752	12.6363	0.388462	0.314377
12.8756	12.6358	0.389534	0.310703
12.8761	12.6354	0.390035	0.310701
12.8766	12.6349	0.39001	0.312922
12.8771	12.6344	0.389397	0.310188
12.8775	12.6339	0.386925	0.308897
12.878	12.6335	0.387579	0.308751
12.8785	12.633	0.388211	0.309116
12.8789	12.6325	0.390058	0.30954
12.8794	12.6321	0.386895	0.310881
12.8799	12.6316	0.388086	0.308271
12.8804	12.6311	0.38825	0.309257
12.8808	12.6306	0.388908	0.309549
12.8813	12.6302	0.388368	0.310821
12.8818	12.6297	0.387957	0.30971
12.8822	12.6292	0.387099	0.309037
12.8827	12.6288	0.386533	0.307809
12.8832	12.6283	0.389281	0.309798
12.8837	12.6278	0.387684	0.311068
12.8841	12.6273	0.385845	0.310078
12.8846	12.6269	0.388908	0.308422
12.8851	12.6264	0.386253	0.307031
12.8856	12.6259	0.385704	0.307205
12.886	12.6254	0.38772	0.309182
12.8865	12.6249	0.385214	0.306414
12.887	12.6245	0.385064	0.303584
12.8874	12.624	0.386636	0.303453
12.8879	12.6235	0.385446	0.304655
12.8884	12.6231	0.386304	0.305137
12.8889	12.6226	0.383972	0.303604
12.8893	12.6221	0.385861	0.301497
12.8898	12.6217	0.385597	0.300488
12.8903	12.6212	0.383829	0.300193
12.8907	12.6207	0.38634	0.30177
12.8912	12.6202	0.383778	0.301327
12.8917	12.6197	0.383902	0.297747
12.8922	12.6193	0.385728	0.298175
12.8926	12.6188	0.385604	0.299391
12.8931	12.6183	0.384455	0.299956
12.8936	12.6179	0.383026	0.29917
12.8941	12.6174	0.383902	0.298706
12.8945	12.6169	0.38424	0.297891
12.895	12.6165	0.384399	0.297155
12.8955	12.616	0.38537	0.299108
12.8959	12.6155	0.383272	0.298685
12.8964	12.615	0.381794	0.296455
12.8969	12.6145	0.384856	0.297336
12.8974	12.6141	0.388183	0.300289
12.8978	12.6136	0.385386	0.298331
12.8983	12.6131	0.384141	0.297999
12.8988	12.6127	0.384052	0.294863
