# 1304     AichiSR QXAFS
# Start     : 8.9544
# End       : 9.0544
# Dir       : Forward
# Points    : 300
# ScanTime  : 1.01549
# Date      : 13.04.23 22:30
# Ring Cur. : 25.7[mA]
12.7557	12.7558	0.403404	1.22892
12.7562	12.7553	0.404909	1.22939
12.7566	12.7548	0.401829	1.22526
12.7571	12.7543	0.403946	1.22669
12.7576	12.7539	0.403152	1.2311
12.7581	12.7534	0.402703	1.22843
12.7585	12.7529	0.402872	1.23095
12.759	12.7525	0.403092	1.22712
12.7595	12.752	0.403576	1.22631
12.7599	12.7515	0.401376	1.22652
12.7604	12.7511	0.404001	1.22793
12.7609	12.7506	0.40225	1.22938
12.7614	12.7501	0.401627	1.22589
12.7618	12.7497	0.404901	1.22666
12.7623	12.7492	0.402882	1.22451
12.7628	12.7487	0.403741	1.22895
12.7632	12.7483	0.403683	1.22558
12.7637	12.7478	0.402723	1.22888
12.7642	12.7473	0.403686	1.22451
12.7647	12.7468	0.403155	1.2263
12.7651	12.7464	0.403057	1.22653
12.7656	12.7459	0.403042	1.22385
12.7661	12.7454	0.40265	1.22399
12.7666	12.7449	0.40565	1.22407
12.767	12.7445	0.402965	1.22406
12.7675	12.744	0.402979	1.22542
12.768	12.7435	0.40256	1.2232
12.7684	12.7431	0.403204	1.22077
12.7689	12.7426	0.403489	1.2193
12.7694	12.7421	0.403128	1.22048
12.7699	12.7417	0.402437	1.22343
12.7703	12.7412	0.402084	1.22425
12.7708	12.7407	0.402386	1.21884
12.7713	12.7402	0.404127	1.22047
12.7717	12.7398	0.403825	1.22052
12.7722	12.7393	0.402499	1.22209
12.7727	12.7388	0.404534	1.22116
12.7732	12.7384	0.404406	1.21784
12.7736	12.7379	0.404917	1.2159
12.7741	12.7374	0.402987	1.21431
12.7746	12.7369	0.404329	1.21974
12.7751	12.7365	0.402519	1.21586
12.7755	12.736	0.401963	1.2085
12.776	12.7355	0.401955	1.20772
12.7765	12.735	0.403911	1.21232
12.7769	12.7345	0.402084	1.21168
12.7774	12.734	0.403012	1.21044
12.7779	12.7336	0.402764	1.20673
12.7784	12.7331	0.40515	1.20232
12.7788	12.7326	0.402984	1.2016
12.7793	12.7322	0.401697	1.201
12.7798	12.7317	0.402196	1.19858
12.7802	12.7312	0.401562	1.19114
12.7807	12.7307	0.403038	1.19126
12.7812	12.7303	0.400686	1.18449
12.7817	12.7298	0.402117	1.18336
12.7821	12.7293	0.402758	1.18175
12.7826	12.7289	0.400752	1.17353
12.7831	12.7284	0.401487	1.16383
12.7836	12.7279	0.400692	1.15914
12.784	12.7275	0.400262	1.15365
12.7845	12.727	0.400452	1.13737
12.785	12.7265	0.398004	1.11739
12.7854	12.726	0.400522	1.09693
12.7859	12.7256	0.397423	1.06617
12.7864	12.7251	0.395365	1.0296
12.7869	12.7246	0.39568	0.98174
12.7873	12.7241	0.396263	0.923046
12.7878	12.7237	0.396294	0.858654
12.7883	12.7232	0.398365	0.79978
12.7887	12.7227	0.399698	0.746534
12.7892	12.7223	0.401224	0.697052
12.7897	12.7218	0.401888	0.661001
12.7902	12.7213	0.402773	0.639672
12.7906	12.7209	0.401594	0.626756
12.7911	12.7204	0.401706	0.622638
12.7916	12.7199	0.400117	0.621451
12.7921	12.7195	0.399958	0.62283
12.7925	12.719	0.400139	0.626414
12.793	12.7185	0.399981	0.630846
12.7935	12.7181	0.400128	0.63651
12.7939	12.7176	0.401229	0.635483
12.7944	12.7171	0.398083	0.629942
12.7949	12.7166	0.400207	0.623778
12.7954	12.7162	0.399769	0.615474
12.7958	12.7157	0.399431	0.607758
12.7963	12.7152	0.399788	0.595333
12.7968	12.7147	0.400656	0.582081
12.7972	12.7142	0.400249	0.570766
12.7977	12.7138	0.40003	0.562859
12.7982	12.7133	0.399382	0.554588
12.7987	12.7128	0.399681	0.543192
12.7991	12.7124	0.397803	0.527793
12.7996	12.7119	0.401015	0.518169
12.8001	12.7114	0.398919	0.506245
12.8006	12.711	0.397533	0.491946
12.801	12.7105	0.399754	0.477647
12.8015	12.71	0.398087	0.459075
12.802	12.7095	0.40072	0.443165
12.8024	12.7091	0.399425	0.4291
12.8029	12.7086	0.398751	0.412642
12.8034	12.7081	0.399406	0.394011
12.8039	12.7077	0.397903	0.37822
12.8043	12.7072	0.399886	0.362521
12.8048	12.7067	0.399383	0.347233
12.8053	12.7062	0.397189	0.337103
12.8057	12.7057	0.399557	0.322905
12.8062	12.7053	0.396982	0.309692
12.8067	12.7048	0.399284	0.300652
12.8072	12.7043	0.39899	0.294398
12.8076	12.7038	0.397726	0.28939
12.8081	12.7033	0.398167	0.283551
12.8086	12.7029	0.398163	0.279292
12.8091	12.7024	0.399591	0.279593
12.8095	12.702	0.398382	0.280447
12.81	12.7015	0.39809	0.284467
12.8105	12.701	0.397491	0.285625
12.8109	12.7005	0.399276	0.288768
12.8114	12.7001	0.399155	0.292994
12.8119	12.6996	0.399524	0.299678
12.8124	12.6991	0.397023	0.304366
12.8128	12.6987	0.398042	0.306486
12.8133	12.6982	0.398575	0.310866
12.8138	12.6977	0.397736	0.314925
12.8142	12.6973	0.396927	0.318039
12.8147	12.6968	0.396261	0.321481
12.8152	12.6963	0.396837	0.321838
12.8157	12.6958	0.398448	0.322382
12.8161	12.6954	0.398073	0.321284
12.8166	12.6949	0.397978	0.32149
12.8171	12.6944	0.397365	0.319975
12.8176	12.6939	0.397335	0.314828
12.818	12.6935	0.396931	0.308371
12.8185	12.693	0.397738	0.303957
12.819	12.6925	0.396259	0.299862
12.8194	12.6921	0.393961	0.292813
12.8199	12.6916	0.395492	0.286194
12.8204	12.6911	0.397821	0.281548
12.8209	12.6907	0.395921	0.277619
12.8213	12.6902	0.39692	0.275666
12.8218	12.6897	0.395606	0.273165
12.8223	12.6893	0.394079	0.271718
12.8227	12.6888	0.396397	0.271179
12.8232	12.6883	0.395942	0.274508
12.8237	12.6879	0.396027	0.278009
12.8242	12.6874	0.392672	0.280475
12.8246	12.6869	0.394651	0.283624
12.8251	12.6864	0.395038	0.288304
12.8256	12.6859	0.394865	0.292653
12.8261	12.6855	0.393577	0.297646
12.8265	12.685	0.392338	0.300541
12.827	12.6845	0.393291	0.301831
12.8275	12.684	0.393437	0.305478
12.8279	12.6835	0.393515	0.310238
12.8284	12.6831	0.394071	0.312537
12.8289	12.6826	0.391406	0.31471
12.8294	12.6821	0.393008	0.317396
12.8298	12.6817	0.394118	0.321066
12.8303	12.6812	0.393586	0.324158
12.8308	12.6807	0.395944	0.329828
12.8312	12.6802	0.395481	0.331764
12.8317	12.6798	0.39506	0.331965
12.8322	12.6793	0.397454	0.335722
12.8327	12.6789	0.394787	0.337445
12.8331	12.6784	0.395081	0.340773
12.8336	12.6779	0.393545	0.342633
12.8341	12.6774	0.394416	0.340101
12.8346	12.677	0.395294	0.338504
12.835	12.6765	0.394798	0.339813
12.8355	12.676	0.394625	0.339667
12.836	12.6755	0.393627	0.340569
12.8364	12.675	0.393239	0.337779
12.8369	12.6745	0.395368	0.338303
12.8374	12.6741	0.394381	0.337997
12.8379	12.6736	0.394468	0.335978
12.8383	12.6731	0.393523	0.335799
12.8388	12.6727	0.395298	0.33331
12.8393	12.6722	0.394951	0.331535
12.8397	12.6717	0.394442	0.328755
12.8402	12.6713	0.394728	0.32869
12.8407	12.6708	0.394913	0.327101
12.8412	12.6703	0.3932	0.322413
12.8416	12.6698	0.393699	0.319367
12.8421	12.6694	0.394247	0.318791
12.8426	12.6689	0.39421	0.31729
12.8431	12.6685	0.39317	0.315688
12.8435	12.668	0.393435	0.311896
12.844	12.6675	0.396198	0.308661
12.8445	12.667	0.394656	0.306781
12.8449	12.6666	0.394571	0.306524
12.8454	12.6661	0.393113	0.302328
12.8459	12.6656	0.392167	0.297759
12.8464	12.6651	0.393482	0.296365
12.8468	12.6647	0.392393	0.294225
12.8473	12.6642	0.391415	0.291998
12.8478	12.6637	0.389876	0.290346
12.8482	12.6632	0.391745	0.287344
12.8487	12.6628	0.39344	0.284757
12.8492	12.6623	0.393223	0.284873
12.8497	12.6619	0.392276	0.28293
12.8501	12.6614	0.391738	0.281155
12.8506	12.6609	0.391719	0.276789
12.8511	12.6604	0.392371	0.275004
12.8516	12.66	0.391785	0.273949
12.852	12.6595	0.390299	0.273008
12.8525	12.659	0.388295	0.271747
12.853	12.6586	0.389497	0.268887
12.8534	12.6581	0.391162	0.268666
12.8539	12.6576	0.391167	0.267928
12.8544	12.6572	0.390059	0.269517
12.8549	12.6567	0.388654	0.268855
12.8553	12.6562	0.389362	0.267435
12.8558	12.6557	0.391377	0.26873
12.8563	12.6552	0.390374	0.269787
12.8567	12.6548	0.389332	0.272632
12.8572	12.6543	0.388789	0.27343
12.8577	12.6538	0.38884	0.274375
12.8582	12.6533	0.391826	0.276504
12.8586	12.6529	0.390173	0.279368
12.8591	12.6524	0.391255	0.282708
12.8596	12.6519	0.39026	0.28463
12.8601	12.6515	0.389931	0.284691
12.8605	12.651	0.390988	0.287418
12.861	12.6505	0.390368	0.290356
12.8615	12.65	0.387749	0.293754
12.8619	12.6496	0.387999	0.294343
12.8624	12.6491	0.388557	0.295822
12.8629	12.6486	0.389862	0.298582
12.8634	12.6482	0.388495	0.30068
12.8638	12.6477	0.387465	0.30424
12.8643	12.6472	0.38717	0.305255
12.8648	12.6467	0.386425	0.30338
12.8652	12.6462	0.387309	0.305733
12.8657	12.6458	0.385133	0.307315
12.8662	12.6453	0.383401	0.309432
12.8667	12.6448	0.381887	0.308826
12.8671	12.6443	0.38236	0.30823
12.8676	12.6439	0.386315	0.311319
12.8681	12.6434	0.38562	0.312104
12.8686	12.6429	0.387008	0.314668
12.869	12.6425	0.385632	0.314256
12.8695	12.642	0.387002	0.313015
12.87	12.6415	0.389662	0.316563
12.8704	12.6411	0.392449	0.319141
12.8709	12.6406	0.388997	0.316794
12.8714	12.6401	0.385123	0.316275
12.8719	12.6396	0.38677	0.31398
12.8723	12.6392	0.388221	0.314451
12.8728	12.6387	0.386155	0.313141
12.8733	12.6383	0.386379	0.314174
12.8737	12.6378	0.384823	0.313399
12.8742	12.6373	0.385285	0.309689
12.8747	12.6368	0.386652	0.311105
12.8752	12.6364	0.386801	0.311758
12.8756	12.6359	0.38598	0.31056
12.8761	12.6354	0.384946	0.309378
12.8766	12.6349	0.384868	0.308149
12.8771	12.6345	0.385912	0.307193
12.8775	12.634	0.386472	0.307574
12.878	12.6335	0.385909	0.308215
12.8785	12.633	0.385069	0.307277
12.8789	12.6326	0.383949	0.305625
12.8794	12.6321	0.38675	0.307476
12.8799	12.6317	0.386518	0.308002
12.8804	12.6312	0.385643	0.307921
12.8808	12.6307	0.385094	0.306846
12.8813	12.6302	0.38479	0.307517
12.8818	12.6298	0.387649	0.308195
12.8822	12.6293	0.385399	0.309307
12.8827	12.6288	0.386427	0.311307
12.8832	12.6284	0.385654	0.309821
12.8837	12.6279	0.3849	0.307202
12.8841	12.6274	0.386639	0.30914
12.8846	12.6269	0.387455	0.309256
12.8851	12.6265	0.386179	0.31007
12.8856	12.626	0.386405	0.307727
12.886	12.6255	0.38693	0.306591
12.8865	12.625	0.388707	0.307686
12.887	12.6245	0.386878	0.30648
12.8874	12.624	0.385556	0.306147
12.8879	12.6236	0.385845	0.306199
12.8884	12.6231	0.386621	0.302942
12.8889	12.6226	0.388153	0.303535
12.8893	12.6222	0.388146	0.304322
12.8898	12.6217	0.386472	0.303576
12.8903	12.6212	0.385387	0.301303
12.8907	12.6207	0.386446	0.299762
12.8912	12.6203	0.387506	0.300822
12.8917	12.6198	0.387024	0.300676
12.8922	12.6193	0.386649	0.301241
12.8926	12.6189	0.387276	0.300338
12.8931	12.6184	0.386639	0.299008
12.8936	12.6179	0.387742	0.300503
12.8941	12.6175	0.387737	0.302318
12.8945	12.617	0.38655	0.301973
12.895	12.6165	0.384876	0.299636
12.8955	12.616	0.385445	0.298391
12.8959	12.6155	0.387963	0.299407
12.8964	12.6151	0.387931	0.300093
12.8969	12.6146	0.386375	0.30043
12.8974	12.6141	0.387588	0.299304
12.8978	12.6136	0.388062	0.297612
12.8983	12.6132	0.388366	0.298318
12.8988	12.6127	0.387055	0.299904
