# 1304     AichiSR QXAFS
# Start     : 8.9544
# End       : 9.0544
# Dir       : Forward
# Points    : 300
# ScanTime  : 1.01549
# Date      : 13.04.23 22:29
# Ring Cur. : 25.7[mA]
12.7557	12.7558	0.404167	1.2354
12.7562	12.7553	0.403499	1.23528
12.7566	12.7548	0.404344	1.23373
12.7571	12.7543	0.405656	1.23157
12.7576	12.7539	0.405438	1.23723
12.7581	12.7534	0.400903	1.2299
12.7585	12.7529	0.405219	1.23262
12.759	12.7525	0.404666	1.23055
12.7595	12.752	0.40437	1.23282
12.7599	12.7515	0.404947	1.23365
12.7604	12.7511	0.403941	1.23311
12.7609	12.7506	0.405263	1.23236
12.7614	12.7501	0.403992	1.23166
12.7618	12.7496	0.405292	1.23232
12.7623	12.7492	0.405269	1.23316
12.7628	12.7487	0.403943	1.23293
12.7632	12.7483	0.405094	1.22949
12.7637	12.7478	0.404872	1.23084
12.7642	12.7473	0.404752	1.2306
12.7647	12.7468	0.405506	1.23242
12.7651	12.7464	0.402971	1.23206
12.7656	12.7459	0.404357	1.22676
12.7661	12.7454	0.404649	1.22685
12.7666	12.7449	0.404647	1.22848
12.767	12.7445	0.406185	1.23264
12.7675	12.744	0.402374	1.23077
12.768	12.7435	0.404269	1.22619
12.7684	12.743	0.405476	1.22561
12.7689	12.7426	0.404339	1.22707
12.7694	12.7421	0.405477	1.23012
12.7699	12.7417	0.402147	1.22664
12.7703	12.7412	0.403127	1.22516
12.7708	12.7407	0.404587	1.22164
12.7713	12.7402	0.405579	1.22421
12.7717	12.7398	0.403951	1.22465
12.7722	12.7393	0.404121	1.22319
12.7727	12.7388	0.402706	1.22121
12.7732	12.7384	0.404224	1.21938
12.7736	12.7379	0.40471	1.22181
12.7741	12.7374	0.405269	1.22331
12.7746	12.7369	0.403372	1.21898
12.7751	12.7364	0.402486	1.21548
12.7755	12.736	0.40288	1.21196
12.776	12.7355	0.405562	1.21516
12.7765	12.735	0.406635	1.21275
12.7769	12.7345	0.402993	1.21601
12.7774	12.734	0.403499	1.20891
12.7779	12.7336	0.403478	1.20692
12.7784	12.7331	0.403506	1.2051
12.7788	12.7326	0.404643	1.20756
12.7793	12.7322	0.402612	1.20078
12.7798	12.7317	0.401297	1.19254
12.7802	12.7312	0.40241	1.19467
12.7807	12.7307	0.403897	1.19308
12.7812	12.7303	0.402979	1.19019
12.7817	12.7298	0.401512	1.18607
12.7821	12.7293	0.401732	1.18097
12.7826	12.7289	0.401696	1.1764
12.7831	12.7284	0.401874	1.16913
12.7836	12.7279	0.40188	1.16333
12.784	12.7275	0.400971	1.15303
12.7845	12.727	0.401571	1.13435
12.785	12.7265	0.399651	1.11575
12.7854	12.726	0.398727	1.09711
12.7859	12.7255	0.397888	1.07055
12.7864	12.7251	0.394454	1.02628
12.7869	12.7246	0.396063	0.977602
12.7873	12.7241	0.396549	0.924732
12.7878	12.7236	0.396576	0.86246
12.7883	12.7232	0.401138	0.804403
12.7887	12.7227	0.400499	0.74661
12.7892	12.7223	0.399918	0.693244
12.7897	12.7218	0.400431	0.660151
12.7902	12.7213	0.402028	0.642752
12.7906	12.7208	0.401234	0.628033
12.7911	12.7204	0.399734	0.622282
12.7916	12.7199	0.400468	0.618889
12.7921	12.7194	0.400163	0.621754
12.7925	12.719	0.400738	0.628543
12.793	12.7185	0.402192	0.635808
12.7935	12.7181	0.401786	0.637552
12.7939	12.7176	0.399595	0.632446
12.7944	12.7171	0.399785	0.632832
12.7949	12.7166	0.400127	0.627434
12.7954	12.7162	0.40014	0.619483
12.7958	12.7157	0.40037	0.606167
12.7963	12.7152	0.398556	0.594383
12.7968	12.7147	0.400437	0.580116
12.7972	12.7142	0.400911	0.572989
12.7977	12.7138	0.399899	0.565382
12.7982	12.7133	0.398936	0.552689
12.7987	12.7128	0.39868	0.539572
12.7991	12.7124	0.401582	0.528097
12.7996	12.7119	0.399685	0.51649
12.8001	12.7114	0.400065	0.506464
12.8006	12.7109	0.3983	0.491753
12.801	12.7105	0.398261	0.474766
12.8015	12.71	0.401221	0.460134
12.802	12.7095	0.399571	0.446405
12.8024	12.7091	0.400847	0.429631
12.8029	12.7086	0.39786	0.412875
12.8034	12.7081	0.398139	0.392489
12.8039	12.7077	0.401212	0.376947
12.8043	12.7072	0.400113	0.363564
12.8048	12.7067	0.400483	0.349905
12.8053	12.7062	0.398744	0.335547
12.8057	12.7057	0.399195	0.32132
12.8062	12.7052	0.398103	0.309538
12.8067	12.7048	0.397444	0.301245
12.8072	12.7043	0.400292	0.295211
12.8076	12.7038	0.397785	0.288342
12.8081	12.7033	0.397619	0.282922
12.8086	12.7029	0.399028	0.279757
12.8091	12.7024	0.39905	0.280037
12.8095	12.7019	0.398612	0.282905
12.81	12.7015	0.396677	0.283824
12.8105	12.701	0.397558	0.28398
12.8109	12.7005	0.399113	0.28816
12.8114	12.7	0.398227	0.293575
12.8119	12.6996	0.398355	0.298752
12.8124	12.6991	0.396552	0.303492
12.8128	12.6987	0.396854	0.305179
12.8133	12.6982	0.398679	0.310904
12.8138	12.6977	0.398344	0.313992
12.8142	12.6972	0.39961	0.318453
12.8147	12.6968	0.397409	0.321688
12.8152	12.6963	0.397891	0.320173
12.8157	12.6958	0.39763	0.322133
12.8161	12.6953	0.397982	0.321286
12.8166	12.6949	0.397481	0.322077
12.8171	12.6944	0.397299	0.318416
12.8176	12.6939	0.39577	0.31286
12.818	12.6934	0.396981	0.309505
12.8185	12.693	0.397964	0.304644
12.819	12.6925	0.398604	0.30002
12.8194	12.6921	0.397335	0.293477
12.8199	12.6916	0.395663	0.287273
12.8204	12.6911	0.397965	0.281959
12.8209	12.6906	0.396703	0.278167
12.8213	12.6902	0.395799	0.276514
12.8218	12.6897	0.395939	0.274578
12.8223	12.6892	0.395789	0.271293
12.8227	12.6888	0.39589	0.271595
12.8232	12.6883	0.396158	0.27459
12.8237	12.6878	0.396488	0.278312
12.8242	12.6874	0.394878	0.280803
12.8246	12.6869	0.393273	0.283399
12.8251	12.6864	0.394968	0.286768
12.8256	12.6859	0.395117	0.29258
12.8261	12.6854	0.394295	0.29761
12.8265	12.685	0.393316	0.300609
12.827	12.6845	0.391859	0.302492
12.8275	12.684	0.394343	0.306145
12.8279	12.6835	0.395091	0.310678
12.8284	12.6831	0.394981	0.314827
12.8289	12.6826	0.39281	0.316659
12.8294	12.6821	0.392338	0.318578
12.8298	12.6817	0.394243	0.321427
12.8303	12.6812	0.394507	0.324511
12.8308	12.6807	0.395077	0.329117
12.8312	12.6802	0.395414	0.331669
12.8317	12.6798	0.392981	0.331786
12.8322	12.6793	0.395898	0.335792
12.8327	12.6788	0.395591	0.33817
12.8331	12.6784	0.394361	0.338832
12.8336	12.6779	0.394621	0.340021
12.8341	12.6774	0.394937	0.339381
12.8346	12.6769	0.396505	0.340317
12.835	12.6765	0.393653	0.340449
12.8355	12.676	0.394495	0.34245
12.836	12.6755	0.394686	0.339844
12.8364	12.675	0.393697	0.337512
12.8369	12.6745	0.394144	0.336104
12.8374	12.6741	0.394748	0.337073
12.8379	12.6736	0.39551	0.337054
12.8383	12.6731	0.39231	0.33417
12.8388	12.6727	0.393206	0.331797
12.8393	12.6722	0.394158	0.329767
12.8397	12.6717	0.393437	0.330862
12.8402	12.6713	0.394791	0.328791
12.8407	12.6708	0.393035	0.327469
12.8412	12.6703	0.391295	0.321447
12.8416	12.6698	0.393765	0.320415
12.8421	12.6694	0.393392	0.320082
12.8426	12.6689	0.393384	0.317765
12.8431	12.6685	0.393562	0.314066
12.8435	12.668	0.391625	0.310893
12.844	12.6675	0.393721	0.307587
12.8445	12.667	0.393539	0.306618
12.8449	12.6666	0.392909	0.304636
12.8454	12.6661	0.395104	0.302318
12.8459	12.6656	0.3905	0.297085
12.8464	12.6651	0.392864	0.295373
12.8468	12.6647	0.39217	0.29441
12.8473	12.6642	0.392016	0.292902
12.8478	12.6637	0.392484	0.290669
12.8482	12.6632	0.389372	0.286071
12.8487	12.6628	0.391861	0.284867
12.8492	12.6623	0.391583	0.285244
12.8497	12.6619	0.390442	0.282136
12.8501	12.6614	0.390566	0.28082
12.8506	12.6609	0.390528	0.275704
12.8511	12.6604	0.391172	0.275194
12.8516	12.66	0.391155	0.273198
12.852	12.6595	0.389897	0.272352
12.8525	12.659	0.390469	0.271464
12.853	12.6586	0.389519	0.268082
12.8534	12.6581	0.390228	0.267674
12.8539	12.6576	0.389206	0.268328
12.8544	12.6571	0.389296	0.269278
12.8549	12.6567	0.389343	0.267714
12.8553	12.6562	0.388208	0.266256
12.8558	12.6557	0.390502	0.268455
12.8563	12.6552	0.389696	0.271383
12.8567	12.6548	0.388432	0.273576
12.8572	12.6543	0.390111	0.273573
12.8577	12.6538	0.389761	0.273173
12.8582	12.6533	0.391286	0.276735
12.8586	12.6529	0.389954	0.279332
12.8591	12.6524	0.388818	0.282745
12.8596	12.6519	0.388482	0.283602
12.8601	12.6515	0.389141	0.283485
12.8605	12.651	0.394228	0.289628
12.861	12.6505	0.39272	0.294085
12.8615	12.65	0.389044	0.293558
12.8619	12.6496	0.388111	0.295278
12.8624	12.6491	0.388796	0.296472
12.8629	12.6486	0.389471	0.29927
12.8634	12.6482	0.38801	0.30129
12.8638	12.6477	0.388536	0.303943
12.8643	12.6472	0.388053	0.304819
12.8648	12.6467	0.384107	0.302848
12.8652	12.6462	0.384712	0.30414
12.8657	12.6458	0.385461	0.307114
12.8662	12.6453	0.383643	0.309737
12.8667	12.6448	0.383359	0.309359
12.8671	12.6443	0.384298	0.310037
12.8676	12.6438	0.386344	0.309699
12.8681	12.6434	0.387096	0.313409
12.8686	12.6429	0.386753	0.315364
12.869	12.6425	0.386449	0.316608
12.8695	12.642	0.387214	0.313194
12.87	12.6415	0.387466	0.31539
12.8704	12.6411	0.387632	0.31704
12.8709	12.6406	0.38758	0.316949
12.8714	12.6401	0.38586	0.315619
12.8719	12.6396	0.386552	0.314328
12.8723	12.6392	0.388804	0.315486
12.8728	12.6387	0.388183	0.31582
12.8733	12.6382	0.386785	0.316541
12.8737	12.6378	0.389395	0.31568
12.8742	12.6373	0.388957	0.311313
12.8747	12.6368	0.387286	0.312473
12.8752	12.6364	0.389083	0.312782
12.8756	12.6359	0.3883	0.314065
12.8761	12.6354	0.387815	0.310776
12.8766	12.6349	0.387623	0.309522
12.8771	12.6344	0.388313	0.309765
12.8775	12.634	0.390081	0.310704
12.878	12.6335	0.388094	0.31072
12.8785	12.633	0.388755	0.310162
12.8789	12.6326	0.387772	0.308764
12.8794	12.6321	0.389617	0.30777
12.8799	12.6316	0.389423	0.309869
12.8804	12.6312	0.387773	0.311751
12.8808	12.6307	0.387587	0.310664
12.8813	12.6302	0.388113	0.309739
12.8818	12.6297	0.388854	0.309339
12.8822	12.6293	0.387445	0.310281
12.8827	12.6288	0.389043	0.31218
12.8832	12.6283	0.389427	0.312219
12.8837	12.6279	0.38815	0.309112
12.8841	12.6274	0.390472	0.311362
12.8846	12.6269	0.389784	0.312361
12.8851	12.6264	0.388854	0.312182
12.8856	12.626	0.389594	0.310171
12.886	12.6255	0.38957	0.308598
12.8865	12.625	0.389614	0.30758
12.887	12.6245	0.389625	0.308894
12.8874	12.624	0.389783	0.308284
12.8879	12.6236	0.389915	0.30783
12.8884	12.6231	0.388482	0.304877
12.8889	12.6226	0.389604	0.303768
12.8893	12.6222	0.38952	0.306774
12.8898	12.6217	0.388389	0.306018
12.8903	12.6212	0.389949	0.303434
12.8907	12.6207	0.389547	0.303213
12.8912	12.6203	0.389665	0.303191
12.8917	12.6198	0.389153	0.303741
12.8922	12.6193	0.387768	0.304094
12.8926	12.6189	0.388601	0.301337
12.8931	12.6184	0.388981	0.300713
12.8936	12.6179	0.389779	0.301557
12.8941	12.6174	0.389556	0.303153
12.8945	12.617	0.388389	0.303625
12.895	12.6165	0.386763	0.301777
12.8955	12.616	0.390081	0.300643
12.8959	12.6155	0.390037	0.302324
12.8964	12.6151	0.388094	0.301767
12.8969	12.6146	0.387506	0.302352
12.8974	12.6141	0.38977	0.301613
12.8978	12.6136	0.389743	0.299026
12.8983	12.6132	0.388353	0.299354
12.8988	12.6127	0.389707	0.29924
