# 1304     AichiSR QXAFS
# Start     : 8.9544
# End       : 9.0544
# Dir       : Forward
# Points    : 300
# ScanTime  : 1.01549
# Date      : 13.04.23 22:25
# Ring Cur. : 25.4[mA]
12.7557	12.7557	0.402428	1.22791
12.7562	12.7553	0.403313	1.22685
12.7566	12.7548	0.403696	1.22825
12.7571	12.7543	0.399979	1.22682
12.7576	12.7538	0.402543	1.22838
12.7581	12.7534	0.40031	1.22313
12.7585	12.7529	0.402808	1.22369
12.759	12.7524	0.402652	1.22865
12.7595	12.752	0.401771	1.2279
12.7599	12.7515	0.40263	1.2266
12.7604	12.751	0.40339	1.22508
12.7609	12.7506	0.402311	1.22366
12.7614	12.7501	0.403431	1.22821
12.7618	12.7496	0.401439	1.229
12.7623	12.7492	0.40045	1.22213
12.7628	12.7487	0.401399	1.22326
12.7632	12.7482	0.401523	1.22281
12.7637	12.7478	0.403012	1.2278
12.7642	12.7473	0.40032	1.22609
12.7647	12.7468	0.400501	1.22244
12.7651	12.7463	0.40253	1.21972
12.7656	12.7459	0.400713	1.2208
12.7661	12.7454	0.402034	1.22205
12.7666	12.7449	0.400454	1.22112
12.767	12.7444	0.40164	1.22036
12.7675	12.7439	0.401454	1.21916
12.768	12.7435	0.40148	1.21376
12.7684	12.743	0.402671	1.22035
12.7689	12.7425	0.40068	1.21886
12.7694	12.7421	0.400042	1.21493
12.7699	12.7416	0.400417	1.21549
12.7703	12.7411	0.401646	1.2162
12.7708	12.7407	0.401025	1.21829
12.7713	12.7402	0.399835	1.21317
12.7717	12.7397	0.399358	1.21082
12.7722	12.7393	0.397638	1.20911
12.7727	12.7388	0.401031	1.21159
12.7732	12.7383	0.401589	1.21204
12.7736	12.7379	0.4001	1.20894
12.7741	12.7374	0.400701	1.20701
12.7746	12.7369	0.402127	1.20825
12.7751	12.7364	0.400094	1.20597
12.7755	12.7359	0.401892	1.20618
12.776	12.7355	0.399719	1.20914
12.7765	12.735	0.400596	1.20343
12.7769	12.7345	0.400525	1.20139
12.7774	12.734	0.399839	1.19605
12.7779	12.7335	0.400044	1.19707
12.7784	12.7331	0.398553	1.19778
12.7788	12.7326	0.399942	1.1927
12.7793	12.7321	0.400597	1.18975
12.7798	12.7317	0.398301	1.1851
12.7802	12.7312	0.399528	1.18768
12.7807	12.7307	0.398923	1.18525
12.7812	12.7302	0.398702	1.17455
12.7817	12.7298	0.399017	1.17379
12.7821	12.7293	0.398458	1.1705
12.7826	12.7288	0.397728	1.16532
12.7831	12.7284	0.396554	1.15865
12.7836	12.7279	0.396454	1.14662
12.784	12.7274	0.397566	1.13986
12.7845	12.7269	0.397057	1.12523
12.785	12.7265	0.396378	1.11121
12.7854	12.726	0.393862	1.09168
12.7859	12.7255	0.393564	1.05698
12.7864	12.725	0.393642	1.0151
12.7869	12.7246	0.392138	0.974405
12.7873	12.7241	0.392989	0.919142
12.7878	12.7236	0.392592	0.859997
12.7883	12.7231	0.395953	0.796155
12.7887	12.7227	0.396818	0.739703
12.7892	12.7222	0.397034	0.691982
12.7897	12.7218	0.396792	0.658628
12.7902	12.7213	0.397446	0.636191
12.7906	12.7208	0.396228	0.619694
12.7911	12.7203	0.397469	0.613495
12.7916	12.7199	0.396695	0.614412
12.7921	12.7194	0.398102	0.619116
12.7925	12.719	0.396556	0.6213
12.793	12.7185	0.39555	0.623766
12.7935	12.718	0.397633	0.62912
12.7939	12.7175	0.397118	0.632675
12.7944	12.7171	0.397105	0.629812
12.7949	12.7166	0.397558	0.623382
12.7954	12.7161	0.397211	0.612928
12.7958	12.7156	0.398354	0.600421
12.7963	12.7152	0.397427	0.591143
12.7968	12.7147	0.395529	0.579588
12.7972	12.7142	0.395674	0.567445
12.7977	12.7137	0.394873	0.557096
12.7982	12.7133	0.397309	0.546385
12.7987	12.7128	0.395183	0.535373
12.7991	12.7123	0.395548	0.5274
12.7996	12.7119	0.395665	0.515375
12.8001	12.7114	0.395125	0.500048
12.8006	12.7109	0.396753	0.486444
12.801	12.7104	0.396362	0.473417
12.8015	12.71	0.396374	0.458595
12.802	12.7095	0.394885	0.441642
12.8024	12.709	0.394854	0.422947
12.8029	12.7086	0.397285	0.407303
12.8034	12.7081	0.39329	0.39125
12.8039	12.7076	0.396086	0.376782
12.8043	12.7071	0.395959	0.362467
12.8048	12.7067	0.395162	0.345131
12.8053	12.7062	0.396547	0.332772
12.8057	12.7057	0.39612	0.319588
12.8062	12.7052	0.395077	0.311155
12.8067	12.7047	0.393639	0.30066
12.8072	12.7043	0.395128	0.289854
12.8076	12.7038	0.39603	0.283972
12.8081	12.7033	0.394881	0.280556
12.8086	12.7028	0.39453	0.279964
12.8091	12.7024	0.393959	0.278914
12.8095	12.7019	0.393587	0.277851
12.81	12.7014	0.395188	0.279182
12.8105	12.701	0.395418	0.283918
12.8109	12.7005	0.393275	0.287721
12.8114	12.7	0.393655	0.291104
12.8119	12.6995	0.39396	0.293548
12.8124	12.6991	0.395188	0.299225
12.8128	12.6986	0.394282	0.305263
12.8133	12.6982	0.392364	0.309
12.8138	12.6977	0.392669	0.311773
12.8142	12.6972	0.392683	0.313896
12.8147	12.6967	0.394292	0.31655
12.8152	12.6963	0.394381	0.318321
12.8157	12.6958	0.392392	0.319783
12.8161	12.6953	0.392389	0.319951
12.8166	12.6948	0.39274	0.317632
12.8171	12.6944	0.394333	0.314634
12.8176	12.6939	0.392256	0.311762
12.818	12.6934	0.391645	0.307433
12.8185	12.6929	0.392257	0.302838
12.819	12.6925	0.393037	0.294005
12.8194	12.692	0.392286	0.289018
12.8199	12.6916	0.393752	0.285773
12.8204	12.6911	0.392971	0.280567
12.8209	12.6906	0.390838	0.275035
12.8213	12.6901	0.392227	0.270075
12.8218	12.6897	0.393704	0.269351
12.8223	12.6892	0.392298	0.268835
12.8227	12.6888	0.389985	0.270272
12.8232	12.6883	0.390797	0.27139
12.8237	12.6878	0.391078	0.273398
12.8242	12.6873	0.391221	0.276103
12.8246	12.6869	0.391668	0.281846
12.8251	12.6864	0.389221	0.286292
12.8256	12.6859	0.389071	0.288979
12.8261	12.6854	0.386468	0.290986
12.8265	12.6849	0.389911	0.29548
12.827	12.6845	0.389281	0.299978
12.8275	12.684	0.387308	0.302912
12.8279	12.6835	0.387398	0.304251
12.8284	12.683	0.387267	0.307546
12.8289	12.6826	0.387753	0.309589
12.8294	12.6821	0.388869	0.314695
12.8298	12.6816	0.388408	0.317793
12.8303	12.6812	0.387646	0.320667
12.8308	12.6807	0.389794	0.32208
12.8312	12.6802	0.390246	0.326234
12.8317	12.6797	0.388054	0.329366
12.8322	12.6793	0.388929	0.333048
12.8327	12.6788	0.38947	0.332876
12.8331	12.6783	0.387984	0.331655
12.8336	12.6779	0.39014	0.335783
12.8341	12.6774	0.389397	0.33703
12.8346	12.6769	0.388597	0.336148
12.835	12.6764	0.387849	0.336109
12.8355	12.676	0.389909	0.333112
12.836	12.6755	0.390082	0.334087
12.8364	12.675	0.389014	0.33436
12.8369	12.6745	0.388026	0.334593
12.8374	12.674	0.388108	0.331977
12.8379	12.6736	0.387928	0.329077
12.8383	12.6731	0.391412	0.331265
12.8388	12.6726	0.393114	0.333209
12.8393	12.6722	0.388016	0.327346
12.8397	12.6717	0.387657	0.324739
12.8402	12.6712	0.388349	0.322478
12.8407	12.6708	0.389792	0.320764
12.8412	12.6703	0.389398	0.320014
12.8416	12.6698	0.387361	0.317194
12.8421	12.6694	0.386913	0.314429
12.8426	12.6689	0.387991	0.31166
12.8431	12.6684	0.388545	0.309231
12.8435	12.668	0.389078	0.309669
12.844	12.6675	0.388299	0.306528
12.8445	12.667	0.387506	0.301312
12.8449	12.6665	0.389157	0.298842
12.8454	12.6661	0.388321	0.297252
12.8459	12.6656	0.387195	0.295861
12.8464	12.6651	0.38655	0.293791
12.8468	12.6646	0.38848	0.290533
12.8473	12.6641	0.387572	0.288527
12.8478	12.6637	0.38874	0.287086
12.8482	12.6632	0.387725	0.285416
12.8487	12.6628	0.386239	0.284064
12.8492	12.6623	0.38738	0.280674
12.8497	12.6618	0.389503	0.27831
12.8501	12.6614	0.387775	0.276702
12.8506	12.6609	0.387315	0.276957
12.8511	12.6604	0.386043	0.273869
12.8516	12.6599	0.387697	0.271985
12.852	12.6595	0.387959	0.270517
12.8525	12.659	0.389275	0.267732
12.853	12.6585	0.388452	0.269867
12.8534	12.6581	0.387139	0.267479
12.8539	12.6576	0.38653	0.266891
12.8544	12.6571	0.389927	0.266112
12.8549	12.6566	0.390849	0.267639
12.8553	12.6562	0.390035	0.26868
12.8558	12.6557	0.387682	0.269477
12.8563	12.6552	0.389538	0.269757
12.8567	12.6547	0.38842	0.270003
12.8572	12.6542	0.390103	0.27376
12.8577	12.6538	0.390024	0.276268
12.8582	12.6533	0.38881	0.276771
12.8586	12.6528	0.388319	0.277827
12.8591	12.6524	0.390688	0.279402
12.8596	12.6519	0.389768	0.283274
12.8601	12.6514	0.389331	0.286535
12.8605	12.651	0.388553	0.289177
12.861	12.6505	0.388533	0.290525
12.8615	12.65	0.389634	0.292395
12.8619	12.6495	0.390469	0.295132
12.8624	12.6491	0.392262	0.299474
12.8629	12.6486	0.387337	0.299802
12.8634	12.6481	0.389707	0.301928
12.8638	12.6476	0.388288	0.302201
12.8643	12.6472	0.389791	0.303934
12.8648	12.6467	0.389311	0.306932
12.8652	12.6462	0.386115	0.307804
12.8657	12.6457	0.385805	0.307461
12.8662	12.6452	0.387633	0.308531
12.8667	12.6448	0.386516	0.309207
12.8671	12.6443	0.387845	0.313421
12.8676	12.6438	0.386822	0.314708
12.8681	12.6434	0.386932	0.314479
12.8686	12.6429	0.389374	0.315232
12.869	12.6424	0.389364	0.31601
12.8695	12.642	0.391013	0.319505
12.87	12.6415	0.389054	0.318726
12.8704	12.641	0.390541	0.315921
12.8709	12.6405	0.391361	0.317281
12.8714	12.6401	0.390797	0.318146
12.8719	12.6396	0.391002	0.318667
12.8723	12.6391	0.390804	0.31738
12.8728	12.6387	0.390309	0.316923
12.8733	12.6382	0.390291	0.314743
12.8737	12.6378	0.390098	0.316014
12.8742	12.6373	0.389945	0.316264
12.8747	12.6368	0.389036	0.313681
12.8752	12.6363	0.388611	0.311359
12.8756	12.6358	0.390446	0.310313
12.8761	12.6354	0.389785	0.311745
12.8766	12.6349	0.391461	0.312152
12.8771	12.6344	0.389402	0.312564
12.8775	12.6339	0.388547	0.309308
12.878	12.6335	0.391194	0.310166
12.8785	12.633	0.391025	0.310339
12.8789	12.6325	0.391113	0.312524
12.8794	12.6321	0.388953	0.31081
12.8799	12.6316	0.389565	0.309569
12.8804	12.6311	0.391425	0.310199
12.8808	12.6307	0.390898	0.311235
12.8813	12.6302	0.388857	0.311942
12.8818	12.6297	0.388936	0.311791
12.8822	12.6293	0.389026	0.309641
12.8827	12.6288	0.390854	0.310629
12.8832	12.6283	0.390636	0.311223
12.8837	12.6278	0.390688	0.311935
12.8841	12.6274	0.389969	0.312845
12.8846	12.6269	0.389276	0.310282
12.8851	12.6264	0.390603	0.311062
12.8856	12.6259	0.390993	0.310203
12.886	12.6254	0.391104	0.310879
12.8865	12.625	0.390161	0.308953
12.887	12.6245	0.387352	0.306248
12.8874	12.624	0.390935	0.305702
12.8879	12.6235	0.390252	0.307565
12.8884	12.6231	0.388921	0.307304
12.8889	12.6226	0.387384	0.306106
12.8893	12.6221	0.387963	0.303717
12.8898	12.6217	0.391097	0.302702
12.8903	12.6212	0.389881	0.304065
12.8907	12.6207	0.38883	0.303617
12.8912	12.6202	0.387628	0.302601
12.8917	12.6198	0.388337	0.301044
12.8922	12.6193	0.390923	0.301216
12.8926	12.6188	0.388859	0.302505
12.8931	12.6184	0.38852	0.303357
12.8936	12.6179	0.387222	0.302348
12.8941	12.6174	0.38855	0.300069
12.8945	12.6169	0.390014	0.302385
12.895	12.6165	0.38887	0.302016
12.8955	12.616	0.388514	0.30275
12.8959	12.6155	0.388105	0.302094
12.8964	12.615	0.386513	0.299098
12.8969	12.6146	0.389626	0.29949
12.8974	12.6141	0.388166	0.300688
12.8978	12.6136	0.388098	0.301821
12.8983	12.6131	0.387282	0.299469
12.8988	12.6127	0.388849	0.298716
