# 1304     AichiSR QXAFS
# Start     : 8.9544
# End       : 9.0544
# Dir       : Backward
# Points    : 300
# ScanTime  : 1.01549
# Date      : 13.04.23 22:22
# Ring Cur. : 25.5[mA]
12.7557	12.6117	0.306086	0.232882
12.7562	12.6122	0.304905	0.234076
12.7566	12.6127	0.305608	0.236588
12.7571	12.6131	0.307653	0.236378
12.7576	12.6136	0.308131	0.236773
12.7581	12.6141	0.306948	0.23753
12.7585	12.6145	0.310252	0.240538
12.759	12.615	0.307815	0.238647
12.7595	12.6155	0.307168	0.237494
12.7599	12.616	0.308536	0.239138
12.7604	12.6164	0.309643	0.239837
12.7609	12.6169	0.306069	0.241221
12.7614	12.6174	0.307617	0.240534
12.7618	12.6179	0.309163	0.240193
12.7623	12.6183	0.308454	0.239568
12.7628	12.6188	0.308111	0.241469
12.7632	12.6193	0.309166	0.241716
12.7637	12.6197	0.307771	0.241354
12.7642	12.6202	0.308504	0.238104
12.7647	12.6207	0.310424	0.24064
12.7651	12.6212	0.309206	0.241215
12.7656	12.6217	0.305912	0.241315
12.7661	12.6221	0.310269	0.242796
12.7666	12.6226	0.309421	0.241547
12.767	12.623	0.309662	0.241595
12.7675	12.6235	0.308754	0.243203
12.768	12.624	0.309032	0.246684
12.7684	12.6245	0.308745	0.245246
12.7689	12.6249	0.308906	0.243467
12.7694	12.6254	0.310605	0.245869
12.7699	12.6259	0.30884	0.245474
12.7703	12.6264	0.309168	0.247466
12.7708	12.6269	0.30797	0.247219
12.7713	12.6273	0.310006	0.24671
12.7717	12.6278	0.309072	0.247753
12.7722	12.6283	0.309029	0.247965
12.7727	12.6288	0.310031	0.250293
12.7732	12.6292	0.30854	0.247837
12.7736	12.6297	0.309434	0.248775
12.7741	12.6302	0.311623	0.248932
12.7746	12.6306	0.309818	0.24773
12.7751	12.6311	0.307029	0.248658
12.7755	12.6316	0.308797	0.248322
12.776	12.6321	0.30958	0.245783
12.7765	12.6325	0.31126	0.24729
12.7769	12.633	0.310048	0.247512
12.7774	12.6334	0.309068	0.247654
12.7779	12.6339	0.309828	0.24778
12.7784	12.6344	0.308781	0.245772
12.7788	12.6349	0.311925	0.247453
12.7793	12.6353	0.310012	0.248791
12.7798	12.6358	0.309505	0.25033
12.7802	12.6363	0.311384	0.249015
12.7807	12.6368	0.312039	0.250298
12.7812	12.6372	0.311167	0.249884
12.7817	12.6377	0.311323	0.251136
12.7821	12.6382	0.310894	0.253451
12.7826	12.6387	0.311738	0.251949
12.7831	12.6391	0.310707	0.250878
12.7836	12.6396	0.312523	0.253093
12.784	12.64	0.311449	0.254221
12.7845	12.6405	0.310599	0.253451
12.785	12.641	0.311761	0.256013
12.7854	12.6415	0.312563	0.254134
12.7859	12.6419	0.311422	0.252448
12.7864	12.6424	0.31087	0.254417
12.7869	12.6428	0.311372	0.255702
12.7873	12.6433	0.307806	0.251663
12.7878	12.6438	0.310199	0.250831
12.7883	12.6443	0.31419	0.252246
12.7887	12.6447	0.309362	0.252217
12.7892	12.6452	0.306258	0.25014
12.7897	12.6457	0.309091	0.249315
12.7902	12.6462	0.311281	0.248078
12.7906	12.6467	0.310339	0.245711
12.7911	12.6471	0.310747	0.246944
12.7916	12.6476	0.309322	0.246055
12.7921	12.6481	0.310554	0.244879
12.7925	12.6486	0.310436	0.242415
12.793	12.649	0.313433	0.241863
12.7935	12.6495	0.311037	0.240034
12.7939	12.65	0.309288	0.238056
12.7944	12.6504	0.310534	0.2353
12.7949	12.6509	0.314733	0.2349
12.7954	12.6514	0.313501	0.231963
12.7958	12.6519	0.31252	0.231783
12.7963	12.6523	0.313207	0.230165
12.7968	12.6528	0.312214	0.227957
12.7972	12.6533	0.313046	0.224736
12.7977	12.6537	0.31624	0.224803
12.7982	12.6542	0.31527	0.223162
12.7987	12.6547	0.311845	0.221286
12.7991	12.6552	0.312336	0.219231
12.7996	12.6557	0.313084	0.218082
12.8001	12.6561	0.313722	0.218355
12.8006	12.6566	0.313741	0.218298
12.801	12.6571	0.312428	0.217465
12.8015	12.6576	0.311816	0.21459
12.802	12.658	0.312795	0.215121
12.8024	12.6585	0.315677	0.21721
12.8029	12.659	0.313713	0.21743
12.8034	12.6594	0.311152	0.218287
12.8039	12.6599	0.312533	0.218268
12.8043	12.6604	0.315097	0.219991
12.8048	12.6608	0.317937	0.223001
12.8053	12.6613	0.318329	0.224528
12.8057	12.6618	0.313168	0.225269
12.8062	12.6623	0.312057	0.224607
12.8067	12.6627	0.31524	0.226678
12.8072	12.6632	0.316414	0.228339
12.8076	12.6636	0.316532	0.233037
12.8081	12.6641	0.31444	0.233199
12.8086	12.6646	0.314319	0.233988
12.8091	12.6651	0.313748	0.235275
12.8095	12.6655	0.31559	0.237999
12.81	12.666	0.316806	0.242353
12.8105	12.6665	0.314576	0.242992
12.8109	12.667	0.314394	0.241795
12.8114	12.6675	0.315526	0.243725
12.8119	12.6679	0.317688	0.247172
12.8124	12.6684	0.314513	0.250439
12.8128	12.6689	0.314025	0.251833
12.8133	12.6693	0.316265	0.253098
12.8138	12.6698	0.315833	0.253829
12.8142	12.6702	0.315094	0.256643
12.8147	12.6707	0.31655	0.261258
12.8152	12.6712	0.316208	0.263359
12.8157	12.6717	0.316931	0.262648
12.8161	12.6721	0.317391	0.262692
12.8166	12.6726	0.319705	0.266714
12.8171	12.6731	0.317671	0.269776
12.8176	12.6735	0.315531	0.270242
12.818	12.674	0.316417	0.270632
12.8185	12.6745	0.318602	0.271534
12.819	12.675	0.318563	0.272593
12.8194	12.6755	0.318704	0.27499
12.8199	12.6759	0.31879	0.276159
12.8204	12.6764	0.318644	0.273452
12.8209	12.6769	0.31952	0.274192
12.8213	12.6774	0.319608	0.275787
12.8218	12.6779	0.319391	0.277381
12.8223	12.6783	0.318933	0.278319
12.8227	12.6788	0.321056	0.276125
12.8232	12.6793	0.320951	0.274542
12.8237	12.6797	0.321051	0.27238
12.8242	12.6802	0.321209	0.273113
12.8246	12.6807	0.32172	0.271926
12.8251	12.6811	0.319274	0.268088
12.8256	12.6816	0.320222	0.262471
12.8261	12.6821	0.321428	0.264176
12.8265	12.6826	0.321201	0.262597
12.827	12.683	0.318831	0.259306
12.8275	12.6835	0.318548	0.255038
12.8279	12.684	0.321392	0.253229
12.8284	12.6844	0.321277	0.251151
12.8289	12.6849	0.320748	0.250503
12.8294	12.6854	0.320732	0.248433
12.8298	12.6859	0.321465	0.243847
12.8303	12.6864	0.322105	0.239565
12.8308	12.6868	0.323336	0.237694
12.8312	12.6873	0.322539	0.236097
12.8317	12.6878	0.321954	0.232451
12.8322	12.6883	0.321734	0.227452
12.8327	12.6887	0.323296	0.225657
12.8331	12.6892	0.323247	0.222773
12.8336	12.6896	0.323908	0.22418
12.8341	12.6901	0.323526	0.224548
12.8346	12.6906	0.322694	0.223162
12.835	12.6911	0.323688	0.224898
12.8355	12.6915	0.32503	0.229746
12.836	12.692	0.323805	0.234668
12.8364	12.6925	0.323241	0.238476
12.8369	12.6929	0.324245	0.242959
12.8374	12.6934	0.32528	0.24642
12.8379	12.6939	0.323255	0.250359
12.8383	12.6943	0.323766	0.25774
12.8388	12.6948	0.325276	0.260589
12.8393	12.6953	0.322739	0.260249
12.8397	12.6958	0.325009	0.260751
12.8402	12.6962	0.325273	0.263049
12.8407	12.6967	0.324288	0.264577
12.8412	12.6972	0.325448	0.263839
12.8416	12.6977	0.323944	0.260702
12.8421	12.6981	0.325476	0.258286
12.8426	12.6986	0.324257	0.25633
12.8431	12.6991	0.324718	0.254247
12.8435	12.6995	0.324599	0.250094
12.844	12.7	0.322525	0.244702
12.8445	12.7005	0.324724	0.242038
12.8449	12.7009	0.325426	0.239154
12.8454	12.7014	0.324932	0.236276
12.8459	12.7019	0.322956	0.233235
12.8464	12.7024	0.32515	0.230912
12.8468	12.7028	0.326677	0.229003
12.8473	12.7033	0.326508	0.229857
12.8478	12.7038	0.32522	0.231866
12.8482	12.7042	0.326639	0.234557
12.8487	12.7047	0.325167	0.238519
12.8492	12.7052	0.327357	0.242212
12.8497	12.7057	0.328135	0.25254
12.8501	12.7062	0.327799	0.261998
12.8506	12.7066	0.325044	0.268362
12.8511	12.7071	0.326108	0.278143
12.8516	12.7076	0.330699	0.292313
12.852	12.7081	0.328153	0.303635
12.8525	12.7085	0.327647	0.317987
12.853	12.709	0.326434	0.331907
12.8534	12.7095	0.326536	0.34252
12.8539	12.7099	0.329069	0.359019
12.8544	12.7104	0.330323	0.375618
12.8549	12.7109	0.328774	0.386285
12.8553	12.7114	0.326859	0.399642
12.8558	12.7118	0.328763	0.411479
12.8563	12.7123	0.329758	0.420575
12.8567	12.7128	0.328792	0.431331
12.8572	12.7132	0.329012	0.444271
12.8577	12.7137	0.328067	0.452495
12.8582	12.7142	0.32652	0.456413
12.8586	12.7147	0.32831	0.466527
12.8591	12.7151	0.33032	0.475405
12.8596	12.7156	0.330289	0.485397
12.8601	12.7161	0.327791	0.493175
12.8605	12.7166	0.328234	0.501099
12.861	12.717	0.329683	0.510886
12.8615	12.7175	0.32849	0.518131
12.8619	12.718	0.329106	0.523859
12.8624	12.7185	0.328165	0.522647
12.8629	12.7189	0.326053	0.515833
12.8634	12.7194	0.328962	0.517495
12.8638	12.7198	0.329574	0.513856
12.8643	12.7203	0.328397	0.510459
12.8648	12.7208	0.326805	0.509725
12.8652	12.7213	0.328184	0.508657
12.8657	12.7217	0.327853	0.517105
12.8662	12.7222	0.326196	0.529421
12.8667	12.7227	0.328817	0.557438
12.8671	12.7231	0.326032	0.589525
12.8676	12.7236	0.324792	0.622268
12.8681	12.7241	0.32486	0.67287
12.8686	12.7245	0.326524	0.733134
12.869	12.725	0.324458	0.779034
12.8695	12.7255	0.321813	0.81718
12.87	12.726	0.322958	0.854195
12.8704	12.7264	0.32632	0.88501
12.8709	12.7269	0.326028	0.904528
12.8714	12.7274	0.327512	0.923207
12.8719	12.7279	0.325999	0.935662
12.8723	12.7283	0.325305	0.93841
12.8728	12.7288	0.327268	0.948933
12.8733	12.7293	0.329841	0.957171
12.8737	12.7297	0.327162	0.961925
12.8742	12.7302	0.327175	0.964973
12.8747	12.7307	0.327789	0.9646
12.8752	12.7312	0.328133	0.970483
12.8756	12.7317	0.328184	0.974469
12.8761	12.7321	0.329722	0.980956
12.8766	12.7326	0.328227	0.981748
12.8771	12.733	0.327813	0.977102
12.8775	12.7335	0.329368	0.981308
12.878	12.734	0.329684	0.987645
12.8785	12.7345	0.330344	0.99141
12.8789	12.735	0.326871	0.988152
12.8794	12.7354	0.329603	0.990425
12.8799	12.7359	0.329317	0.987642
12.8804	12.7364	0.329517	0.993855
12.8808	12.7369	0.328326	0.992631
12.8813	12.7374	0.329509	0.997195
12.8818	12.7378	0.328211	0.99182
12.8822	12.7383	0.328203	0.989061
12.8827	12.7388	0.330584	0.999311
12.8832	12.7392	0.331131	1.00342
12.8837	12.7397	0.327467	1.00099
12.8841	12.7402	0.330599	0.9964
12.8846	12.7407	0.331475	0.999901
12.8851	12.7411	0.330007	1.0001
12.8856	12.7416	0.330949	1.00556
12.886	12.7421	0.331552	1.00789
12.8865	12.7425	0.330294	1.00063
12.887	12.743	0.330287	0.999739
12.8874	12.7435	0.332541	1.00705
12.8879	12.7439	0.330306	1.00466
12.8884	12.7444	0.329722	1.00738
12.8889	12.7449	0.331697	1.00762
12.8893	12.7454	0.331933	1.00433
12.8898	12.7458	0.33064	1.00629
12.8903	12.7463	0.331915	1.01443
12.8907	12.7468	0.332597	1.0143
12.8912	12.7473	0.328327	1.00225
12.8917	12.7478	0.332507	1.00953
12.8922	12.7482	0.334517	1.01553
12.8926	12.7487	0.332313	1.0144
12.8931	12.7491	0.330333	1.00762
12.8936	12.7496	0.331643	1.01042
12.8941	12.7501	0.334362	1.0124
12.8945	12.7505	0.33164	1.01226
12.895	12.751	0.332027	1.01464
12.8955	12.7515	0.332213	1.01449
12.8959	12.752	0.330742	1.00889
12.8964	12.7524	0.33179	1.01112
12.8969	12.7529	0.333507	1.01533
12.8974	12.7533	0.330507	1.01535
12.8978	12.7538	0.332375	1.01262
12.8983	12.7543	0.332078	1.01297
12.8988	12.7548	0.333949	1.01523
