# 1304     AichiSR QXAFS
# Start     : 8.9544
# End       : 9.0544
# Dir       : Forward
# Points    : 300
# ScanTime  : 1.01549
# Date      : 13.04.23 22:19
# Ring Cur. : 25.5[mA]
12.7557	12.7557	0.402383	1.22869
12.7562	12.7552	0.402891	1.23079
12.7566	12.7548	0.401618	1.22982
12.7571	12.7543	0.401426	1.22429
12.7576	12.7538	0.403651	1.22281
12.7581	12.7533	0.401451	1.2253
12.7585	12.7529	0.402571	1.22762
12.759	12.7524	0.401283	1.22651
12.7595	12.752	0.401386	1.22301
12.7599	12.7515	0.402094	1.22503
12.7604	12.751	0.40271	1.22691
12.7609	12.7505	0.402448	1.22695
12.7614	12.7501	0.401831	1.22305
12.7618	12.7496	0.400688	1.22358
12.7623	12.7491	0.402507	1.22124
12.7628	12.7487	0.402728	1.22119
12.7632	12.7482	0.402921	1.22485
12.7637	12.7477	0.400836	1.22432
12.7642	12.7473	0.400669	1.21749
12.7647	12.7468	0.401794	1.21533
12.7651	12.7463	0.402043	1.22162
12.7656	12.7458	0.401479	1.21738
12.7661	12.7454	0.401674	1.22042
12.7666	12.7449	0.401205	1.21732
12.767	12.7444	0.401381	1.21958
12.7675	12.7439	0.402051	1.21731
12.768	12.7435	0.400256	1.223
12.7684	12.743	0.398513	1.21776
12.7689	12.7425	0.399777	1.21199
12.7694	12.7421	0.401769	1.2148
12.7699	12.7416	0.400538	1.21609
12.7703	12.7411	0.400037	1.21238
12.7708	12.7406	0.398897	1.21247
12.7713	12.7402	0.400336	1.20923
12.7717	12.7397	0.400774	1.21012
12.7722	12.7392	0.399839	1.21025
12.7727	12.7388	0.401083	1.21404
12.7732	12.7383	0.400075	1.21347
12.7736	12.7378	0.398043	1.20696
12.7741	12.7374	0.400753	1.20402
12.7746	12.7369	0.40137	1.20655
12.7751	12.7364	0.399242	1.20679
12.7755	12.7359	0.399542	1.20307
12.776	12.7354	0.399348	1.20094
12.7765	12.735	0.399689	1.19868
12.7769	12.7345	0.400028	1.19719
12.7774	12.734	0.39924	1.19907
12.7779	12.7335	0.397212	1.1961
12.7784	12.7331	0.396177	1.19113
12.7788	12.7326	0.399641	1.19071
12.7793	12.7321	0.397775	1.19126
12.7798	12.7317	0.399398	1.18595
12.7802	12.7312	0.397182	1.1831
12.7807	12.7307	0.397737	1.17783
12.7812	12.7302	0.398782	1.17349
12.7817	12.7297	0.398128	1.17064
12.7821	12.7293	0.397753	1.16882
12.7826	12.7288	0.39724	1.16404
12.7831	12.7284	0.396658	1.15042
12.7836	12.7279	0.399116	1.1463
12.784	12.7274	0.396767	1.13726
12.7845	12.7269	0.394793	1.12413
12.785	12.7265	0.395198	1.10594
12.7854	12.726	0.392293	1.08103
12.7859	12.7255	0.393913	1.04822
12.7864	12.725	0.390754	1.0095
12.7869	12.7245	0.391057	0.967542
12.7873	12.7241	0.393016	0.91166
12.7878	12.7236	0.393084	0.846445
12.7883	12.7231	0.394678	0.790274
12.7887	12.7227	0.395511	0.736268
12.7892	12.7222	0.395261	0.691818
12.7897	12.7218	0.394409	0.653848
12.7902	12.7213	0.395752	0.631184
12.7906	12.7208	0.396294	0.617688
12.7911	12.7203	0.396911	0.615016
12.7916	12.7199	0.396491	0.616368
12.7921	12.7194	0.396523	0.616114
12.7925	12.7189	0.39581	0.621948
12.793	12.7185	0.397154	0.624394
12.7935	12.718	0.397572	0.628674
12.7939	12.7175	0.397618	0.630764
12.7944	12.7171	0.39728	0.625011
12.7949	12.7166	0.395595	0.616998
12.7954	12.7161	0.39706	0.606301
12.7958	12.7156	0.395493	0.599963
12.7963	12.7151	0.395641	0.590259
12.7968	12.7147	0.39612	0.575678
12.7972	12.7142	0.395296	0.563158
12.7977	12.7137	0.396444	0.554115
12.7982	12.7132	0.39573	0.546101
12.7987	12.7128	0.39382	0.537072
12.7991	12.7123	0.393747	0.522666
12.7996	12.7119	0.394793	0.511313
12.8001	12.7114	0.395292	0.49763
12.8006	12.7109	0.395421	0.486312
12.801	12.7104	0.396679	0.472905
12.8015	12.7099	0.396195	0.456243
12.802	12.7095	0.394878	0.438627
12.8024	12.709	0.395716	0.421888
12.8029	12.7086	0.394667	0.406901
12.8034	12.7081	0.393269	0.390096
12.8039	12.7076	0.395152	0.373763
12.8043	12.7071	0.392761	0.355349
12.8048	12.7066	0.396442	0.341327
12.8053	12.7062	0.396128	0.32997
12.8057	12.7057	0.394559	0.318426
12.8062	12.7052	0.394882	0.30643
12.8067	12.7047	0.393502	0.297066
12.8072	12.7042	0.39455	0.289491
12.8076	12.7038	0.393938	0.285555
12.8081	12.7033	0.394193	0.281255
12.8086	12.7028	0.393693	0.278406
12.8091	12.7024	0.394052	0.275711
12.8095	12.7019	0.394401	0.277308
12.81	12.7014	0.393285	0.279459
12.8105	12.701	0.39281	0.283537
12.8109	12.7005	0.393985	0.286182
12.8114	12.7	0.39263	0.288912
12.8119	12.6995	0.394623	0.294144
12.8124	12.6991	0.394498	0.300414
12.8128	12.6986	0.393054	0.305167
12.8133	12.6981	0.393184	0.307184
12.8138	12.6977	0.391794	0.310335
12.8142	12.6972	0.393592	0.313078
12.8147	12.6967	0.393894	0.317364
12.8152	12.6963	0.393177	0.319098
12.8157	12.6958	0.393132	0.317638
12.8161	12.6953	0.392238	0.317507
12.8166	12.6948	0.391694	0.315804
12.8171	12.6943	0.392941	0.314996
12.8176	12.6939	0.391421	0.309751
12.818	12.6934	0.391998	0.305198
12.8185	12.6929	0.39168	0.298685
12.819	12.6925	0.391044	0.294931
12.8194	12.692	0.392251	0.288274
12.8199	12.6915	0.389906	0.28331
12.8204	12.6911	0.390688	0.278252
12.8209	12.6906	0.390372	0.273394
12.8213	12.6901	0.390609	0.271331
12.8218	12.6897	0.391254	0.270015
12.8223	12.6892	0.389586	0.270786
12.8227	12.6887	0.389737	0.269464
12.8232	12.6883	0.390496	0.270438
12.8237	12.6878	0.391443	0.27349
12.8242	12.6873	0.389822	0.277069
12.8246	12.6868	0.386869	0.280611
12.8251	12.6864	0.388864	0.283273
12.8256	12.6859	0.387939	0.286009
12.8261	12.6854	0.387565	0.290132
12.8265	12.6849	0.387913	0.297328
12.827	12.6844	0.386346	0.301604
12.8275	12.684	0.387507	0.301746
12.8279	12.6835	0.387764	0.304279
12.8284	12.683	0.387184	0.308703
12.8289	12.6826	0.389366	0.312364
12.8294	12.6821	0.387359	0.315654
12.8298	12.6816	0.389087	0.317897
12.8303	12.6812	0.389028	0.318874
12.8308	12.6807	0.387867	0.323076
12.8312	12.6802	0.388275	0.326737
12.8317	12.6797	0.387019	0.327857
12.8322	12.6793	0.388417	0.33049
12.8327	12.6788	0.38733	0.330556
12.8331	12.6783	0.388257	0.332826
12.8336	12.6779	0.388808	0.335265
12.8341	12.6774	0.387304	0.336501
12.8346	12.6769	0.387699	0.335195
12.835	12.6764	0.388378	0.333212
12.8355	12.6759	0.391425	0.338532
12.836	12.6755	0.390874	0.33724
12.8364	12.675	0.387944	0.33474
12.8369	12.6745	0.387072	0.330831
12.8374	12.674	0.387932	0.330047
12.8379	12.6735	0.388017	0.329596
12.8383	12.6731	0.38744	0.330727
12.8388	12.6726	0.3869	0.328596
12.8393	12.6722	0.386737	0.324558
12.8397	12.6717	0.387561	0.322662
12.8402	12.6712	0.387953	0.322015
12.8407	12.6707	0.388011	0.321426
12.8412	12.6703	0.386115	0.319423
12.8416	12.6698	0.387283	0.315155
12.8421	12.6693	0.389782	0.313016
12.8426	12.6689	0.388549	0.312341
12.8431	12.6684	0.386077	0.309773
12.8435	12.6679	0.388501	0.307106
12.844	12.6675	0.386885	0.303691
12.8445	12.667	0.38804	0.300441
12.8449	12.6665	0.38689	0.298444
12.8454	12.666	0.389012	0.298256
12.8459	12.6656	0.387424	0.295352
12.8464	12.6651	0.387219	0.292586
12.8468	12.6646	0.38738	0.290168
12.8473	12.6641	0.388289	0.287031
12.8478	12.6637	0.387438	0.28818
12.8482	12.6632	0.386995	0.285895
12.8487	12.6627	0.388415	0.282058
12.8492	12.6623	0.388343	0.27877
12.8497	12.6618	0.387714	0.27864
12.8501	12.6614	0.388672	0.279233
12.8506	12.6609	0.388182	0.275929
12.8511	12.6604	0.387219	0.273405
12.8516	12.6599	0.387027	0.271294
12.852	12.6595	0.388507	0.271076
12.8525	12.659	0.387795	0.270385
12.853	12.6585	0.386609	0.268392
12.8534	12.6581	0.388463	0.267677
12.8539	12.6576	0.388464	0.266019
12.8544	12.6571	0.388878	0.26683
12.8549	12.6566	0.38797	0.268446
12.8553	12.6561	0.387955	0.269518
12.8558	12.6557	0.389543	0.268341
12.8563	12.6552	0.389725	0.267369
12.8567	12.6547	0.389692	0.272381
12.8572	12.6542	0.389189	0.275077
12.8577	12.6537	0.38815	0.274641
12.8582	12.6533	0.390236	0.276366
12.8586	12.6528	0.389569	0.278087
12.8591	12.6524	0.388288	0.280547
12.8596	12.6519	0.390167	0.284428
12.8601	12.6514	0.388838	0.286701
12.8605	12.6509	0.389348	0.287264
12.861	12.6505	0.390665	0.289241
12.8615	12.65	0.389086	0.292928
12.8619	12.6495	0.389812	0.298084
12.8624	12.649	0.388545	0.299182
12.8629	12.6486	0.388863	0.299783
12.8634	12.6481	0.389946	0.301778
12.8638	12.6476	0.388331	0.30348
12.8643	12.6472	0.388543	0.306728
12.8648	12.6467	0.387027	0.30656
12.8652	12.6462	0.383928	0.306074
12.8657	12.6457	0.386605	0.306971
12.8662	12.6452	0.385978	0.310983
12.8667	12.6448	0.385754	0.31167
12.8671	12.6443	0.386129	0.313493
12.8676	12.6438	0.388314	0.313541
12.8681	12.6433	0.389872	0.31297
12.8686	12.6429	0.38789	0.315427
12.869	12.6424	0.390223	0.318488
12.8695	12.642	0.388183	0.317053
12.87	12.6415	0.388378	0.315614
12.8704	12.641	0.389028	0.315942
12.8709	12.6405	0.38987	0.318303
12.8714	12.6401	0.389643	0.31813
12.8719	12.6396	0.388503	0.317933
12.8723	12.6391	0.38995	0.315659
12.8728	12.6387	0.391341	0.315238
12.8733	12.6382	0.388661	0.315594
12.8737	12.6377	0.390422	0.316813
12.8742	12.6373	0.389134	0.313704
12.8747	12.6368	0.389209	0.312202
12.8752	12.6363	0.389543	0.312537
12.8756	12.6358	0.388785	0.312487
12.8761	12.6353	0.387519	0.311698
12.8766	12.6349	0.389545	0.311762
12.8771	12.6344	0.389645	0.311447
12.8775	12.6339	0.388499	0.30847
12.878	12.6335	0.389301	0.310772
12.8785	12.633	0.389303	0.31147
12.8789	12.6325	0.388241	0.310443
12.8794	12.6321	0.388296	0.31056
12.8799	12.6316	0.390692	0.309428
12.8804	12.6311	0.3896	0.310967
12.8808	12.6306	0.38988	0.310003
12.8813	12.6302	0.388777	0.312232
12.8818	12.6297	0.388155	0.31102
12.8822	12.6292	0.389756	0.31049
12.8827	12.6288	0.389808	0.311487
12.8832	12.6283	0.388824	0.312242
12.8837	12.6278	0.387632	0.310837
12.8841	12.6274	0.388637	0.308793
12.8846	12.6269	0.388512	0.310014
12.8851	12.6264	0.389754	0.310174
12.8856	12.6259	0.38817	0.310823
12.886	12.6254	0.388922	0.309425
12.8865	12.625	0.388907	0.307661
12.887	12.6245	0.390395	0.307231
12.8874	12.624	0.388424	0.308058
12.8879	12.6235	0.389068	0.307442
12.8884	12.6231	0.387052	0.305781
12.8889	12.6226	0.387122	0.303828
12.8893	12.6221	0.390963	0.30333
12.8898	12.6217	0.388555	0.303172
12.8903	12.6212	0.387448	0.303458
12.8907	12.6207	0.386794	0.302715
12.8912	12.6202	0.388251	0.29942
12.8917	12.6197	0.388261	0.300234
12.8922	12.6193	0.38843	0.302148
12.8926	12.6188	0.388309	0.303121
12.8931	12.6184	0.38741	0.30124
12.8936	12.6179	0.38529	0.300614
12.8941	12.6174	0.389496	0.301909
12.8945	12.6169	0.386721	0.301698
12.895	12.6165	0.386047	0.301672
12.8955	12.616	0.387493	0.300659
12.8959	12.6155	0.387005	0.299645
12.8964	12.615	0.386833	0.299241
12.8969	12.6145	0.387079	0.299927
12.8974	12.6141	0.386505	0.300665
12.8978	12.6136	0.385352	0.298157
12.8983	12.6131	0.386513	0.297991
12.8988	12.6127	0.387831	0.296651
