# 1304     AichiSR QXAFS
# Start     : 8.9544
# End       : 9.0544
# Dir       : Forward
# Points    : 300
# ScanTime  : 1.01549
# Date      : 13.04.23 22:21
# Ring Cur. : 25.5[mA]
12.7557	12.7557	0.396819	1.20858
12.7562	12.7552	0.395429	1.20689
12.7566	12.7548	0.396937	1.20661
12.7571	12.7543	0.397281	1.20844
12.7576	12.7538	0.3959	1.20874
12.7581	12.7533	0.395381	1.20698
12.7585	12.7529	0.396248	1.20469
12.759	12.7524	0.400161	1.21596
12.7595	12.752	0.398861	1.21673
12.7599	12.7515	0.39505	1.20902
12.7604	12.751	0.396488	1.20774
12.7609	12.7505	0.394913	1.20487
12.7614	12.7501	0.396187	1.20502
12.7618	12.7496	0.396222	1.20376
12.7623	12.7491	0.394383	1.2067
12.7628	12.7487	0.394734	1.20563
12.7632	12.7482	0.395374	1.20213
12.7637	12.7477	0.395985	1.20002
12.7642	12.7473	0.395543	1.20192
12.7647	12.7468	0.393582	1.20548
12.7651	12.7463	0.394976	1.20199
12.7656	12.7458	0.394523	1.19809
12.7661	12.7454	0.395042	1.20259
12.7666	12.7449	0.396736	1.2021
12.767	12.7444	0.393888	1.20262
12.7675	12.7439	0.39449	1.1971
12.768	12.7435	0.394531	1.19719
12.7684	12.743	0.396776	1.19854
12.7689	12.7425	0.395867	1.20298
12.7694	12.7421	0.395633	1.20202
12.7699	12.7416	0.395406	1.19867
12.7703	12.7411	0.396105	1.19813
12.7708	12.7406	0.396121	1.19894
12.7713	12.7402	0.396936	1.2006
12.7717	12.7397	0.39522	1.20165
12.7722	12.7392	0.395525	1.19818
12.7727	12.7388	0.396427	1.19838
12.7732	12.7383	0.395942	1.19645
12.7736	12.7378	0.396265	1.19945
12.7741	12.7374	0.395261	1.19915
12.7746	12.7369	0.396533	1.19395
12.7751	12.7364	0.396784	1.19411
12.7755	12.7359	0.396418	1.19253
12.776	12.7354	0.397247	1.19698
12.7765	12.7349	0.396285	1.19636
12.7769	12.7345	0.396635	1.19067
12.7774	12.734	0.396277	1.19162
12.7779	12.7335	0.397847	1.18567
12.7784	12.733	0.397719	1.18761
12.7788	12.7326	0.395268	1.18785
12.7793	12.7321	0.395907	1.18619
12.7798	12.7316	0.397293	1.17614
12.7802	12.7312	0.396703	1.17656
12.7807	12.7307	0.398376	1.17661
12.7812	12.7302	0.396474	1.17061
12.7817	12.7297	0.39772	1.16607
12.7821	12.7293	0.396804	1.1645
12.7826	12.7288	0.398133	1.1585
12.7831	12.7284	0.397319	1.15398
12.7836	12.7279	0.396356	1.14712
12.784	12.7274	0.397079	1.13608
12.7845	12.7269	0.395707	1.11931
12.785	12.7265	0.395523	1.10538
12.7854	12.726	0.394394	1.08892
12.7859	12.7255	0.39293	1.05717
12.7864	12.725	0.391618	1.01573
12.7869	12.7245	0.392857	0.971007
12.7873	12.7241	0.394133	0.915901
12.7878	12.7236	0.393557	0.856858
12.7883	12.7231	0.39427	0.800189
12.7887	12.7227	0.397452	0.739775
12.7892	12.7222	0.396965	0.690881
12.7897	12.7218	0.398976	0.655718
12.7902	12.7213	0.398031	0.637591
12.7906	12.7208	0.396915	0.622359
12.7911	12.7203	0.397735	0.616012
12.7916	12.7199	0.39887	0.61579
12.7921	12.7194	0.397873	0.619679
12.7925	12.7189	0.399389	0.624719
12.793	12.7185	0.397371	0.626915
12.7935	12.718	0.397715	0.629429
12.7939	12.7175	0.39717	0.629927
12.7944	12.7171	0.397062	0.627181
12.7949	12.7166	0.398868	0.623451
12.7954	12.7161	0.396008	0.615299
12.7958	12.7156	0.399087	0.601297
12.7963	12.7151	0.398987	0.59057
12.7968	12.7147	0.397712	0.581095
12.7972	12.7142	0.399962	0.571284
12.7977	12.7137	0.39747	0.560829
12.7982	12.7132	0.398141	0.54794
12.7987	12.7128	0.397845	0.539085
12.7991	12.7123	0.397782	0.528356
12.7996	12.7118	0.398828	0.517677
12.8001	12.7114	0.396228	0.503959
12.8006	12.7109	0.398851	0.489201
12.801	12.7104	0.398619	0.474271
12.8015	12.7099	0.398841	0.459118
12.802	12.7095	0.399073	0.443238
12.8024	12.709	0.39721	0.427917
12.8029	12.7085	0.397831	0.408149
12.8034	12.7081	0.398282	0.391723
12.8039	12.7076	0.396953	0.374788
12.8043	12.7071	0.399019	0.36293
12.8048	12.7066	0.397521	0.349328
12.8053	12.7062	0.397917	0.332736
12.8057	12.7057	0.398593	0.319351
12.8062	12.7052	0.398049	0.310723
12.8067	12.7047	0.399572	0.301797
12.8072	12.7042	0.396739	0.295349
12.8076	12.7038	0.399335	0.287987
12.8081	12.7033	0.398686	0.282481
12.8086	12.7028	0.397885	0.281055
12.8091	12.7024	0.396958	0.281409
12.8095	12.7019	0.397999	0.28135
12.81	12.7014	0.397173	0.281177
12.8105	12.7009	0.398179	0.285236
12.8109	12.7005	0.398318	0.290076
12.8114	12.7	0.399336	0.294631
12.8119	12.6995	0.396661	0.300918
12.8124	12.6991	0.399034	0.302942
12.8128	12.6986	0.39883	0.307049
12.8133	12.6981	0.398019	0.312714
12.8138	12.6977	0.399166	0.316359
12.8142	12.6972	0.397323	0.318531
12.8147	12.6967	0.396712	0.319541
12.8152	12.6962	0.399001	0.320606
12.8157	12.6958	0.398403	0.321813
12.8161	12.6953	0.397804	0.323116
12.8166	12.6948	0.396828	0.321162
12.8171	12.6943	0.396864	0.316717
12.8176	12.6939	0.398441	0.313745
12.818	12.6934	0.396196	0.310027
12.8185	12.6929	0.396985	0.304907
12.819	12.6925	0.396221	0.300273
12.8194	12.692	0.396074	0.291855
12.8199	12.6915	0.397808	0.287631
12.8204	12.6911	0.398001	0.2826
12.8209	12.6906	0.396185	0.279226
12.8213	12.6901	0.396102	0.275391
12.8218	12.6897	0.397149	0.271049
12.8223	12.6892	0.398291	0.271268
12.8227	12.6887	0.396427	0.272869
12.8232	12.6883	0.395286	0.275998
12.8237	12.6878	0.394347	0.27776
12.8242	12.6873	0.3945	0.278674
12.8246	12.6868	0.396462	0.28361
12.8251	12.6864	0.396684	0.288883
12.8256	12.6859	0.395112	0.29413
12.8261	12.6854	0.394856	0.296624
12.8265	12.6849	0.39392	0.299803
12.827	12.6844	0.395511	0.304078
12.8275	12.684	0.394458	0.308105
12.8279	12.6835	0.394054	0.311608
12.8284	12.683	0.392989	0.31458
12.8289	12.6826	0.393242	0.316004
12.8294	12.6821	0.395399	0.318869
12.8298	12.6816	0.394816	0.322573
12.8303	12.6811	0.394046	0.32743
12.8308	12.6807	0.394367	0.328867
12.8312	12.6802	0.395331	0.330827
12.8317	12.6797	0.397321	0.333904
12.8322	12.6793	0.394751	0.337362
12.8327	12.6788	0.396188	0.340166
12.8331	12.6783	0.394528	0.340919
12.8336	12.6779	0.395537	0.339071
12.8341	12.6774	0.39675	0.340963
12.8346	12.6769	0.395734	0.340981
12.835	12.6764	0.394842	0.342948
12.8355	12.6759	0.395136	0.341655
12.836	12.6755	0.394464	0.338887
12.8364	12.675	0.39658	0.337895
12.8369	12.6745	0.395282	0.339238
12.8374	12.674	0.39498	0.338812
12.8379	12.6735	0.393743	0.336891
12.8383	12.6731	0.393487	0.333346
12.8388	12.6726	0.393816	0.332302
12.8393	12.6721	0.395766	0.331442
12.8397	12.6717	0.394866	0.331787
12.8402	12.6712	0.393921	0.329095
12.8407	12.6707	0.392881	0.325323
12.8412	12.6703	0.395958	0.324368
12.8416	12.6698	0.395569	0.322161
12.8421	12.6693	0.394673	0.321074
12.8426	12.6689	0.394234	0.318497
12.8431	12.6684	0.393525	0.313745
12.8435	12.6679	0.395662	0.313042
12.844	12.6675	0.394361	0.308488
12.8445	12.667	0.392845	0.307016
12.8449	12.6665	0.392891	0.305769
12.8454	12.666	0.393688	0.30045
12.8459	12.6656	0.39567	0.298367
12.8464	12.6651	0.395352	0.296847
12.8468	12.6646	0.392973	0.297209
12.8473	12.6641	0.393203	0.29287
12.8478	12.6637	0.392539	0.288919
12.8482	12.6632	0.394617	0.289329
12.8487	12.6627	0.393204	0.288288
12.8492	12.6623	0.39282	0.285326
12.8497	12.6618	0.392642	0.28368
12.8501	12.6613	0.392557	0.278013
12.8506	12.6609	0.394436	0.276996
12.8511	12.6604	0.391763	0.276949
12.8516	12.6599	0.392236	0.275497
12.852	12.6594	0.391005	0.27362
12.8525	12.659	0.390795	0.270828
12.853	12.6585	0.392807	0.270313
12.8534	12.6581	0.392635	0.269838
12.8539	12.6576	0.390951	0.270506
12.8544	12.6571	0.391535	0.270956
12.8549	12.6566	0.39167	0.270016
12.8553	12.6561	0.393282	0.268289
12.8558	12.6557	0.391115	0.270887
12.8563	12.6552	0.391106	0.272612
12.8567	12.6547	0.391652	0.27282
12.8572	12.6542	0.390561	0.274765
12.8577	12.6537	0.392282	0.275633
12.8582	12.6533	0.391991	0.280226
12.8586	12.6528	0.392466	0.281285
12.8591	12.6523	0.390045	0.282744
12.8596	12.6519	0.390245	0.284042
12.8601	12.6514	0.391852	0.28665
12.8605	12.6509	0.391764	0.290253
12.861	12.6504	0.391646	0.294903
12.8615	12.65	0.391779	0.295494
12.8619	12.6495	0.390141	0.295105
12.8624	12.649	0.392278	0.298508
12.8629	12.6486	0.390833	0.300589
12.8634	12.6481	0.390422	0.304509
12.8638	12.6476	0.388793	0.305228
12.8643	12.6471	0.389744	0.30577
12.8648	12.6467	0.388931	0.30738
12.8652	12.6462	0.387282	0.308935
12.8657	12.6457	0.387064	0.310946
12.8662	12.6452	0.386568	0.310359
12.8667	12.6447	0.386785	0.311188
12.8671	12.6443	0.389051	0.311985
12.8676	12.6438	0.386843	0.314744
12.8681	12.6433	0.386908	0.316152
12.8686	12.6429	0.388603	0.316521
12.869	12.6424	0.388818	0.315208
12.8695	12.642	0.391114	0.315723
12.87	12.6415	0.389528	0.317139
12.8704	12.641	0.38887	0.318289
12.8709	12.6405	0.389218	0.318276
12.8714	12.6401	0.388159	0.316196
12.8719	12.6396	0.391021	0.317342
12.8723	12.6391	0.389729	0.317903
12.8728	12.6387	0.388454	0.316594
12.8733	12.6382	0.388186	0.314744
12.8737	12.6377	0.389386	0.314116
12.8742	12.6373	0.388997	0.313352
12.8747	12.6368	0.387221	0.313653
12.8752	12.6363	0.386619	0.313347
12.8756	12.6358	0.389489	0.311208
12.8761	12.6353	0.387075	0.3107
12.8766	12.6349	0.388687	0.30991
12.8771	12.6344	0.387587	0.31123
12.8775	12.6339	0.387935	0.311759
12.878	12.6335	0.389279	0.307493
12.8785	12.633	0.386989	0.307044
12.8789	12.6325	0.387346	0.307599
12.8794	12.6321	0.386235	0.308013
12.8799	12.6316	0.387851	0.308587
12.8804	12.6311	0.386368	0.307338
12.8808	12.6306	0.38625	0.307686
12.8813	12.6302	0.387631	0.308851
12.8818	12.6297	0.387192	0.31043
12.8822	12.6292	0.385483	0.310724
12.8827	12.6288	0.386167	0.308833
12.8832	12.6283	0.38655	0.309153
12.8837	12.6278	0.386435	0.307962
12.8841	12.6273	0.384511	0.309522
12.8846	12.6269	0.384048	0.309518
12.8851	12.6264	0.383073	0.308041
12.8856	12.6259	0.38561	0.306419
12.886	12.6254	0.386799	0.306174
12.8865	12.6249	0.385157	0.306881
12.887	12.6245	0.384487	0.306658
12.8874	12.624	0.384432	0.304947
12.8879	12.6235	0.38572	0.302966
12.8884	12.623	0.385128	0.302206
12.8889	12.6226	0.384115	0.302222
12.8893	12.6221	0.384591	0.302342
12.8898	12.6217	0.384585	0.298845
12.8903	12.6212	0.385141	0.296845
12.8907	12.6207	0.38565	0.298735
12.8912	12.6202	0.386269	0.300941
12.8917	12.6197	0.383965	0.298867
12.8922	12.6193	0.383434	0.296745
12.8926	12.6188	0.383239	0.297839
12.8931	12.6183	0.384257	0.297427
12.8936	12.6179	0.384026	0.297889
12.8941	12.6174	0.382831	0.299588
12.8945	12.6169	0.381829	0.297693
12.895	12.6164	0.382385	0.296665
12.8955	12.616	0.383744	0.296927
12.8959	12.6155	0.382288	0.29764
12.8964	12.615	0.3816	0.297186
12.8969	12.6145	0.38095	0.29667
12.8974	12.6141	0.38008	0.294842
12.8978	12.6136	0.383679	0.2938
12.8983	12.6131	0.382313	0.295266
12.8988	12.6127	0.38233	0.296349
