# 1304     AichiSR QXAFS
# Start     : 8.9544
# End       : 9.0544
# Dir       : Backward
# Points    : 300
# ScanTime  : 1.01549
# Date      : 13.04.23 22:32
# Ring Cur. : 25.6[mA]
12.7557	12.6118	0.305508	0.23318
12.7562	12.6123	0.306816	0.23458
12.7566	12.6128	0.307462	0.23539
12.7571	12.6132	0.307597	0.238396
12.7576	12.6137	0.307316	0.239342
12.7581	12.6142	0.306524	0.237026
12.7585	12.6146	0.308921	0.238491
12.759	12.6151	0.308734	0.239509
12.7595	12.6156	0.308877	0.242999
12.7599	12.6161	0.308424	0.242055
12.7604	12.6165	0.309285	0.240785
12.7609	12.617	0.309849	0.240122
12.7614	12.6175	0.310178	0.242307
12.7618	12.618	0.30965	0.242925
12.7623	12.6184	0.309109	0.242296
12.7628	12.6189	0.309003	0.241048
12.7632	12.6194	0.312293	0.241682
12.7637	12.6198	0.310767	0.242764
12.7642	12.6203	0.310552	0.242895
12.7647	12.6208	0.31196	0.244427
12.7651	12.6213	0.310779	0.241418
12.7656	12.6218	0.310581	0.241071
12.7661	12.6222	0.311785	0.243785
12.7666	12.6227	0.311846	0.246562
12.767	12.6231	0.310766	0.245727
12.7675	12.6236	0.310464	0.244565
12.768	12.6241	0.313145	0.246116
12.7684	12.6246	0.312131	0.246803
12.7689	12.625	0.310784	0.249853
12.7694	12.6255	0.312263	0.249055
12.7699	12.626	0.310881	0.248409
12.7703	12.6265	0.313706	0.248918
12.7708	12.627	0.313359	0.250183
12.7713	12.6274	0.311312	0.251172
12.7717	12.6279	0.313248	0.251122
12.7722	12.6284	0.312648	0.249715
12.7727	12.6289	0.313992	0.250741
12.7732	12.6293	0.312991	0.253501
12.7736	12.6298	0.313682	0.252585
12.7741	12.6303	0.314474	0.252167
12.7746	12.6307	0.313513	0.249451
12.7751	12.6312	0.31325	0.249364
12.7755	12.6317	0.314507	0.251084
12.776	12.6321	0.315838	0.253171
12.7765	12.6326	0.315317	0.251934
12.7769	12.6331	0.313891	0.250106
12.7774	12.6335	0.316493	0.252449
12.7779	12.634	0.316434	0.253367
12.7784	12.6345	0.315434	0.252878
12.7788	12.635	0.315872	0.253066
12.7793	12.6354	0.314139	0.251302
12.7798	12.6359	0.316546	0.252223
12.7802	12.6364	0.31591	0.255089
12.7807	12.6369	0.315082	0.255823
12.7812	12.6373	0.314156	0.25342
12.7817	12.6378	0.314933	0.253983
12.7821	12.6383	0.317023	0.256731
12.7826	12.6387	0.31669	0.257123
12.7831	12.6392	0.3179	0.258229
12.7836	12.6397	0.318369	0.260087
12.784	12.6401	0.317326	0.258466
12.7845	12.6406	0.317581	0.259019
12.785	12.6411	0.318301	0.261625
12.7854	12.6416	0.31699	0.260906
12.7859	12.642	0.316611	0.25998
12.7864	12.6425	0.31658	0.258215
12.7869	12.6429	0.317947	0.258835
12.7873	12.6434	0.316825	0.258194
12.7878	12.6439	0.315318	0.258409
12.7883	12.6443	0.316453	0.257957
12.7887	12.6448	0.316471	0.255966
12.7892	12.6453	0.315893	0.254787
12.7897	12.6458	0.317202	0.256465
12.7902	12.6463	0.318305	0.256071
12.7906	12.6468	0.317064	0.253415
12.7911	12.6472	0.317996	0.250876
12.7916	12.6477	0.32019	0.252479
12.7921	12.6482	0.319383	0.251705
12.7925	12.6487	0.318801	0.250189
12.793	12.6491	0.320393	0.247549
12.7935	12.6496	0.320068	0.24377
12.7939	12.6501	0.318997	0.241312
12.7944	12.6505	0.320731	0.242466
12.7949	12.651	0.321628	0.243269
12.7954	12.6515	0.318873	0.238609
12.7958	12.652	0.320568	0.236086
12.7963	12.6524	0.323737	0.236231
12.7968	12.6529	0.321038	0.234057
12.7972	12.6534	0.322442	0.233199
12.7977	12.6538	0.32265	0.230654
12.7982	12.6543	0.322696	0.22883
12.7987	12.6548	0.321914	0.225637
12.7991	12.6553	0.321577	0.225842
12.7996	12.6558	0.321904	0.225326
12.8001	12.6562	0.321889	0.222941
12.8006	12.6567	0.321975	0.220653
12.801	12.6572	0.323417	0.221528
12.8015	12.6577	0.322266	0.222035
12.802	12.6581	0.321292	0.223344
12.8024	12.6586	0.321671	0.222699
12.8029	12.6591	0.322231	0.222847
12.8034	12.6595	0.322984	0.223371
12.8039	12.66	0.322854	0.226414
12.8043	12.6605	0.325066	0.229449
12.8048	12.6609	0.323053	0.228296
12.8053	12.6614	0.324194	0.229347
12.8057	12.6619	0.325075	0.231381
12.8062	12.6624	0.323847	0.233874
12.8067	12.6628	0.322621	0.235818
12.8072	12.6633	0.324821	0.236239
12.8076	12.6637	0.325905	0.238225
12.8081	12.6642	0.325472	0.239893
12.8086	12.6647	0.325377	0.243782
12.8091	12.6652	0.325913	0.245628
12.8095	12.6656	0.323808	0.24445
12.81	12.6661	0.326945	0.247592
12.8105	12.6666	0.32618	0.249301
12.8109	12.6671	0.324784	0.251405
12.8114	12.6676	0.324897	0.255321
12.8119	12.668	0.326526	0.257525
12.8124	12.6685	0.326285	0.257322
12.8128	12.669	0.324906	0.25831
12.8133	12.6694	0.326852	0.263034
12.8138	12.6699	0.325758	0.265248
12.8142	12.6703	0.325153	0.266141
12.8147	12.6708	0.325253	0.26753
12.8152	12.6713	0.326981	0.270007
12.8157	12.6718	0.325312	0.271013
12.8161	12.6722	0.326037	0.272988
12.8166	12.6727	0.327665	0.275321
12.8171	12.6732	0.327446	0.27492
12.8176	12.6736	0.326636	0.275514
12.818	12.6741	0.326635	0.278394
12.8185	12.6746	0.325369	0.280901
12.819	12.6751	0.325413	0.278778
12.8194	12.6755	0.32595	0.279027
12.8199	12.676	0.326829	0.282267
12.8204	12.6765	0.325682	0.281419
12.8209	12.677	0.324621	0.282005
12.8213	12.6775	0.327338	0.281184
12.8218	12.678	0.328105	0.282908
12.8223	12.6784	0.32622	0.279808
12.8227	12.6789	0.327708	0.28179
12.8232	12.6793	0.325561	0.281128
12.8237	12.6798	0.325247	0.277723
12.8242	12.6803	0.328465	0.276372
12.8246	12.6808	0.328912	0.276313
12.8251	12.6812	0.32568	0.273579
12.8256	12.6817	0.324637	0.269917
12.8261	12.6822	0.328362	0.269079
12.8265	12.6826	0.327912	0.26435
12.827	12.6831	0.324586	0.261458
12.8275	12.6836	0.325935	0.260435
12.8279	12.6841	0.326005	0.259166
12.8284	12.6845	0.325579	0.254675
12.8289	12.685	0.328719	0.251171
12.8294	12.6855	0.327368	0.249273
12.8298	12.686	0.327352	0.24824
12.8303	12.6865	0.326547	0.243281
12.8308	12.6869	0.328859	0.240015
12.8312	12.6874	0.328259	0.235768
12.8317	12.6879	0.328103	0.233407
12.8322	12.6884	0.32792	0.232566
12.8327	12.6888	0.328397	0.22898
12.8331	12.6893	0.327992	0.225889
12.8336	12.6897	0.330051	0.225546
12.8341	12.6902	0.328884	0.226156
12.8346	12.6907	0.328309	0.228822
12.835	12.6912	0.327187	0.230923
12.8355	12.6916	0.329559	0.234294
12.836	12.6921	0.327762	0.237315
12.8364	12.6926	0.327404	0.242179
12.8369	12.693	0.328215	0.248072
12.8374	12.6935	0.328435	0.252957
12.8379	12.694	0.326651	0.25435
12.8383	12.6944	0.329663	0.260186
12.8388	12.6949	0.328822	0.263852
12.8393	12.6954	0.326847	0.265761
12.8397	12.6959	0.325339	0.266556
12.8402	12.6963	0.327187	0.267206
12.8407	12.6968	0.32941	0.266348
12.8412	12.6973	0.326256	0.264436
12.8416	12.6978	0.327715	0.264174
12.8421	12.6982	0.327533	0.262533
12.8426	12.6987	0.326745	0.256692
12.8431	12.6992	0.327277	0.253526
12.8435	12.6996	0.329066	0.251876
12.844	12.7001	0.327107	0.24789
12.8445	12.7006	0.326701	0.242735
12.8449	12.701	0.327639	0.23962
12.8454	12.7015	0.328317	0.23577
12.8459	12.702	0.326971	0.23274
12.8464	12.7024	0.327088	0.23293
12.8468	12.7029	0.329286	0.23068
12.8473	12.7034	0.325473	0.229631
12.8478	12.7039	0.328415	0.233169
12.8482	12.7043	0.328816	0.238082
12.8487	12.7048	0.327561	0.241818
12.8492	12.7053	0.327913	0.247425
12.8497	12.7058	0.329482	0.255596
12.8501	12.7063	0.329977	0.263466
12.8506	12.7067	0.327649	0.273155
12.8511	12.7072	0.328015	0.287744
12.8516	12.7077	0.329536	0.299862
12.852	12.7082	0.328499	0.309406
12.8525	12.7086	0.329691	0.322536
12.853	12.7091	0.329378	0.337994
12.8534	12.7096	0.329223	0.353152
12.8539	12.71	0.329267	0.365411
12.8544	12.7105	0.330195	0.378338
12.8549	12.711	0.329791	0.390739
12.8553	12.7115	0.329185	0.403643
12.8558	12.7119	0.3294	0.417053
12.8563	12.7124	0.329546	0.428441
12.8567	12.7129	0.329354	0.43754
12.8572	12.7133	0.329168	0.444223
12.8577	12.7138	0.329506	0.454594
12.8582	12.7143	0.33003	0.463204
12.8586	12.7148	0.328808	0.471343
12.8591	12.7152	0.329166	0.478373
12.8596	12.7157	0.330946	0.488043
12.8601	12.7162	0.327832	0.495813
12.8605	12.7167	0.327954	0.506794
12.861	12.7171	0.329961	0.516436
12.8615	12.7176	0.327703	0.520857
12.8619	12.7181	0.329535	0.525104
12.8624	12.7186	0.329925	0.523963
12.8629	12.719	0.326414	0.520276
12.8634	12.7195	0.328436	0.514562
12.8638	12.7199	0.328306	0.51195
12.8643	12.7204	0.329711	0.509254
12.8648	12.7209	0.326736	0.506303
12.8652	12.7214	0.327609	0.511109
12.8657	12.7218	0.32577	0.519112
12.8662	12.7223	0.324161	0.531215
12.8667	12.7228	0.330249	0.5597
12.8671	12.7232	0.325987	0.597056
12.8676	12.7237	0.324412	0.637155
12.8681	12.7242	0.323712	0.690354
12.8686	12.7246	0.32479	0.748415
12.869	12.7251	0.324276	0.79144
12.8695	12.7256	0.323304	0.830001
12.87	12.7261	0.324119	0.866493
12.8704	12.7265	0.325009	0.891175
12.8709	12.727	0.325362	0.908864
12.8714	12.7275	0.327962	0.92716
12.8719	12.728	0.325329	0.932317
12.8723	12.7284	0.325885	0.938016
12.8728	12.7289	0.324494	0.946256
12.8733	12.7294	0.32677	0.953975
12.8737	12.7298	0.32816	0.956082
12.8742	12.7303	0.326271	0.959123
12.8747	12.7308	0.325396	0.965827
12.8752	12.7313	0.326336	0.969764
12.8756	12.7318	0.3267	0.968669
12.8761	12.7322	0.328171	0.973316
12.8766	12.7327	0.326742	0.977413
12.8771	12.7331	0.326085	0.9766
12.8775	12.7336	0.324808	0.975962
12.878	12.7341	0.326893	0.977744
12.8785	12.7346	0.329054	0.984948
12.8789	12.7351	0.325255	0.979955
12.8794	12.7355	0.326271	0.981784
12.8799	12.736	0.327812	0.987292
12.8804	12.7365	0.325769	0.982038
12.8808	12.737	0.329337	0.985609
12.8813	12.7375	0.328347	0.989771
12.8818	12.7379	0.328249	0.988502
12.8822	12.7384	0.325528	0.986914
12.8827	12.7389	0.32885	0.992981
12.8832	12.7393	0.334349	1.0038
12.8837	12.7398	0.330697	0.996694
12.8841	12.7403	0.326941	0.996336
12.8846	12.7407	0.327826	0.997325
12.8851	12.7412	0.327532	0.993735
12.8856	12.7417	0.330205	0.998476
12.886	12.7422	0.328098	0.996478
12.8865	12.7426	0.327319	0.994333
12.887	12.7431	0.328521	0.992727
12.8874	12.7436	0.330046	1.00237
12.8879	12.744	0.32911	1.00066
12.8884	12.7445	0.329224	1.00145
12.8889	12.745	0.328761	1.00602
12.8893	12.7455	0.330005	1.00157
12.8898	12.7459	0.328631	1.00098
12.8903	12.7464	0.331807	1.00653
12.8907	12.7469	0.331336	1.00887
12.8912	12.7474	0.327507	1.00289
12.8917	12.7478	0.329754	0.998802
12.8922	12.7483	0.332026	1.00706
12.8926	12.7488	0.331713	1.00758
12.8931	12.7492	0.328844	1.00096
12.8936	12.7497	0.331634	1.0133
12.8941	12.7502	0.330776	1.00733
12.8945	12.7506	0.330186	1.0056
12.895	12.7511	0.333003	1.01155
12.8955	12.7516	0.333719	1.017
12.8959	12.7521	0.330422	1.01078
12.8964	12.7525	0.32981	1.00716
12.8969	12.753	0.332767	1.01276
12.8974	12.7534	0.333223	1.01401
12.8978	12.7539	0.332527	1.01356
12.8983	12.7544	0.333156	1.01861
12.8988	12.7549	0.332749	1.01423
