# 1304     AichiSR QXAFS
# Start     : 8.9544
# End       : 9.0544
# Dir       : Forward
# Points    : 300
# ScanTime  : 1.01549
# Date      : 13.04.23 22:21
# Ring Cur. : 25.5[mA]
12.7557	12.7557	0.402005	1.21646
12.7562	12.7552	0.400666	1.22278
12.7566	12.7548	0.399026	1.2212
12.7571	12.7543	0.399774	1.22103
12.7576	12.7538	0.399469	1.21695
12.7581	12.7533	0.400515	1.21511
12.7585	12.7529	0.400559	1.22141
12.759	12.7524	0.399529	1.22078
12.7595	12.752	0.400789	1.219
12.7599	12.7515	0.399774	1.21946
12.7604	12.751	0.401141	1.21709
12.7609	12.7505	0.40032	1.22023
12.7614	12.7501	0.399458	1.21909
12.7618	12.7496	0.399622	1.22011
12.7623	12.7491	0.399311	1.21634
12.7628	12.7487	0.40137	1.21783
12.7632	12.7482	0.401759	1.22093
12.7637	12.7477	0.400562	1.21968
12.7642	12.7473	0.40065	1.22072
12.7647	12.7468	0.400271	1.21823
12.7651	12.7463	0.402588	1.21664
12.7656	12.7458	0.399728	1.21635
12.7661	12.7454	0.398984	1.21872
12.7666	12.7449	0.399918	1.21608
12.767	12.7444	0.401132	1.21409
12.7675	12.7439	0.401322	1.21459
12.768	12.7435	0.402802	1.21895
12.7684	12.743	0.401278	1.21876
12.7689	12.7425	0.399823	1.2171
12.7694	12.7421	0.400025	1.21463
12.7699	12.7416	0.400663	1.21509
12.7703	12.7411	0.401819	1.21859
12.7708	12.7406	0.399991	1.21715
12.7713	12.7402	0.400143	1.21247
12.7717	12.7397	0.399691	1.20923
12.7722	12.7392	0.402495	1.21335
12.7727	12.7388	0.401936	1.21363
12.7732	12.7383	0.399894	1.2108
12.7736	12.7378	0.400062	1.20981
12.7741	12.7374	0.399908	1.20688
12.7746	12.7369	0.402135	1.20859
12.7751	12.7364	0.401685	1.21022
12.7755	12.7359	0.401189	1.20923
12.776	12.7354	0.400451	1.20801
12.7765	12.7349	0.399492	1.20216
12.7769	12.7345	0.40218	1.20115
12.7774	12.734	0.401526	1.20426
12.7779	12.7335	0.400887	1.20356
12.7784	12.733	0.400587	1.19721
12.7788	12.7326	0.400802	1.19547
12.7793	12.7321	0.401087	1.1926
12.7798	12.7316	0.401377	1.1921
12.7802	12.7312	0.400102	1.19097
12.7807	12.7307	0.400483	1.18518
12.7812	12.7302	0.399454	1.1817
12.7817	12.7297	0.401173	1.17852
12.7821	12.7293	0.402374	1.17515
12.7826	12.7288	0.398632	1.17058
12.7831	12.7284	0.398882	1.1606
12.7836	12.7279	0.400823	1.15176
12.784	12.7274	0.401501	1.14137
12.7845	12.7269	0.398645	1.13161
12.785	12.7265	0.398266	1.11467
12.7854	12.726	0.396453	1.09009
12.7859	12.7255	0.396542	1.05714
12.7864	12.725	0.39528	1.02095
12.7869	12.7245	0.394693	0.978936
12.7873	12.7241	0.395728	0.921795
12.7878	12.7236	0.395349	0.856869
12.7883	12.7231	0.397249	0.798215
12.7887	12.7227	0.399474	0.744058
12.7892	12.7222	0.401365	0.69671
12.7897	12.7218	0.399254	0.663584
12.7902	12.7213	0.400179	0.636795
12.7906	12.7208	0.400767	0.623302
12.7911	12.7203	0.398804	0.617284
12.7916	12.7199	0.399489	0.619128
12.7921	12.7194	0.398023	0.622641
12.7925	12.7189	0.400213	0.626706
12.793	12.7185	0.399679	0.629196
12.7935	12.718	0.400511	0.633965
12.7939	12.7175	0.400541	0.636421
12.7944	12.7171	0.398979	0.632914
12.7949	12.7166	0.400502	0.624549
12.7954	12.7161	0.400563	0.613064
12.7958	12.7156	0.399653	0.604323
12.7963	12.7151	0.400731	0.595975
12.7968	12.7147	0.39731	0.584088
12.7972	12.7142	0.400005	0.571885
12.7977	12.7137	0.399561	0.560124
12.7982	12.7132	0.400325	0.548898
12.7987	12.7128	0.399281	0.541641
12.7991	12.7123	0.397899	0.530704
12.7996	12.7118	0.398231	0.51612
12.8001	12.7114	0.398407	0.501583
12.8006	12.7109	0.398107	0.487705
12.801	12.7104	0.398077	0.478225
12.8015	12.7099	0.398561	0.460739
12.802	12.7095	0.397815	0.442981
12.8024	12.709	0.39919	0.424573
12.8029	12.7085	0.39858	0.410302
12.8034	12.7081	0.398007	0.394468
12.8039	12.7076	0.398269	0.378545
12.8043	12.7071	0.398143	0.361813
12.8048	12.7066	0.399481	0.344969
12.8053	12.7062	0.397031	0.331427
12.8057	12.7057	0.398578	0.323069
12.8062	12.7052	0.397453	0.310911
12.8067	12.7047	0.398136	0.300449
12.8072	12.7042	0.398931	0.291701
12.8076	12.7038	0.398076	0.287468
12.8081	12.7033	0.398104	0.284537
12.8086	12.7028	0.398379	0.281347
12.8091	12.7024	0.397365	0.279765
12.8095	12.7019	0.396355	0.279011
12.81	12.7014	0.397188	0.281944
12.8105	12.7009	0.397585	0.286675
12.8109	12.7005	0.395395	0.289244
12.8114	12.7	0.395767	0.292538
12.8119	12.6995	0.397689	0.297692
12.8124	12.6991	0.397757	0.301838
12.8128	12.6986	0.396176	0.309013
12.8133	12.6981	0.39661	0.312171
12.8138	12.6977	0.397287	0.313492
12.8142	12.6972	0.398607	0.316442
12.8147	12.6967	0.396814	0.318586
12.8152	12.6962	0.39687	0.322426
12.8157	12.6958	0.396345	0.321491
12.8161	12.6953	0.395102	0.320558
12.8166	12.6948	0.397354	0.318852
12.8171	12.6943	0.396547	0.31693
12.8176	12.6939	0.39704	0.31412
12.818	12.6934	0.393529	0.309971
12.8185	12.6929	0.395667	0.304331
12.819	12.6925	0.396668	0.296497
12.8194	12.692	0.395627	0.291343
12.8199	12.6915	0.397	0.287326
12.8204	12.6911	0.39614	0.284098
12.8209	12.6906	0.394475	0.276133
12.8213	12.6901	0.396003	0.274516
12.8218	12.6897	0.396132	0.272271
12.8223	12.6892	0.39496	0.272834
12.8227	12.6887	0.394584	0.273638
12.8232	12.6883	0.39367	0.273208
12.8237	12.6878	0.395412	0.275364
12.8242	12.6873	0.394358	0.280737
12.8246	12.6868	0.394065	0.285566
12.8251	12.6864	0.393084	0.28812
12.8256	12.6859	0.39326	0.291975
12.8261	12.6854	0.393266	0.294664
12.8265	12.6849	0.393397	0.299581
12.827	12.6844	0.392182	0.305576
12.8275	12.684	0.391909	0.308453
12.8279	12.6835	0.391355	0.308482
12.8284	12.683	0.393592	0.311249
12.8289	12.6826	0.392512	0.316603
12.8294	12.6821	0.393872	0.319105
12.8298	12.6816	0.39347	0.322971
12.8303	12.6812	0.392899	0.322381
12.8308	12.6807	0.394252	0.326024
12.8312	12.6802	0.393836	0.330279
12.8317	12.6797	0.395336	0.335487
12.8322	12.6793	0.393295	0.335842
12.8327	12.6788	0.393679	0.335065
12.8331	12.6783	0.395987	0.338018
12.8336	12.6779	0.394931	0.338899
12.8341	12.6774	0.394909	0.341135
12.8346	12.6769	0.394686	0.34218
12.835	12.6764	0.392836	0.338496
12.8355	12.6759	0.394258	0.337995
12.836	12.6755	0.394545	0.339425
12.8364	12.675	0.393556	0.339822
12.8369	12.6745	0.394745	0.338878
12.8374	12.674	0.392987	0.334232
12.8379	12.6735	0.393791	0.332957
12.8383	12.6731	0.393639	0.334944
12.8388	12.6726	0.394086	0.333158
12.8393	12.6722	0.393586	0.330866
12.8397	12.6717	0.390925	0.327673
12.8402	12.6712	0.394056	0.324997
12.8407	12.6707	0.393574	0.325259
12.8412	12.6703	0.3948	0.324068
12.8416	12.6698	0.392494	0.321689
12.8421	12.6693	0.393176	0.317115
12.8426	12.6689	0.396307	0.315838
12.8431	12.6684	0.392833	0.313882
12.8435	12.6679	0.393054	0.313517
12.844	12.6675	0.392367	0.310256
12.8445	12.667	0.39214	0.304842
12.8449	12.6665	0.392575	0.302776
12.8454	12.666	0.392256	0.302403
12.8459	12.6656	0.392613	0.300774
12.8464	12.6651	0.391041	0.295841
12.8468	12.6646	0.391345	0.293205
12.8473	12.6641	0.39425	0.291428
12.8478	12.6637	0.392216	0.29002
12.8482	12.6632	0.393823	0.289392
12.8487	12.6627	0.392564	0.285823
12.8492	12.6623	0.390768	0.282657
12.8497	12.6618	0.392483	0.279543
12.8501	12.6613	0.391631	0.280422
12.8506	12.6609	0.390513	0.278663
12.8511	12.6604	0.39114	0.275007
12.8516	12.6599	0.389471	0.272296
12.852	12.6594	0.391246	0.272467
12.8525	12.659	0.390356	0.270611
12.853	12.6585	0.390275	0.270521
12.8534	12.6581	0.390609	0.269601
12.8539	12.6576	0.389579	0.267204
12.8544	12.6571	0.390219	0.267054
12.8549	12.6566	0.388889	0.267819
12.8553	12.6561	0.389105	0.268578
12.8558	12.6557	0.389671	0.269634
12.8563	12.6552	0.389107	0.269552
12.8567	12.6547	0.390559	0.27139
12.8572	12.6542	0.389748	0.272685
12.8577	12.6537	0.389692	0.277265
12.8582	12.6533	0.389285	0.276786
12.8586	12.6528	0.388034	0.277376
12.8591	12.6523	0.389452	0.280104
12.8596	12.6519	0.389452	0.282717
12.8601	12.6514	0.388334	0.286958
12.8605	12.6509	0.388829	0.287614
12.861	12.6504	0.387447	0.288972
12.8615	12.65	0.38997	0.291203
12.8619	12.6495	0.388584	0.294129
12.8624	12.649	0.388913	0.297111
12.8629	12.6486	0.388196	0.299248
12.8634	12.6481	0.387935	0.299253
12.8638	12.6476	0.387586	0.301924
12.8643	12.6471	0.385744	0.303426
12.8648	12.6467	0.384409	0.305044
12.8652	12.6462	0.384211	0.304053
12.8657	12.6457	0.381862	0.304616
12.8662	12.6452	0.384223	0.305649
12.8667	12.6447	0.383141	0.308675
12.8671	12.6443	0.383537	0.311305
12.8676	12.6438	0.384587	0.311507
12.8681	12.6433	0.384684	0.312101
12.8686	12.6429	0.387217	0.313454
12.869	12.6424	0.387267	0.315103
12.8695	12.6419	0.385863	0.315317
12.87	12.6415	0.385989	0.314221
12.8704	12.641	0.385848	0.31394
12.8709	12.6405	0.387513	0.313686
12.8714	12.6401	0.38503	0.314652
12.8719	12.6396	0.38453	0.314849
12.8723	12.6391	0.385213	0.313826
12.8728	12.6387	0.384337	0.312569
12.8733	12.6382	0.389356	0.314718
12.8737	12.6377	0.389766	0.314857
12.8742	12.6373	0.38455	0.312669
12.8747	12.6368	0.383473	0.310754
12.8752	12.6363	0.385021	0.307973
12.8756	12.6358	0.386874	0.30785
12.8761	12.6354	0.385853	0.309035
12.8766	12.6349	0.383799	0.308885
12.8771	12.6344	0.385397	0.306845
12.8775	12.6339	0.384317	0.30601
12.878	12.6335	0.38635	0.306353
12.8785	12.633	0.384126	0.306601
12.8789	12.6325	0.383187	0.307537
12.8794	12.6321	0.384369	0.30666
12.8799	12.6316	0.384452	0.304796
12.8804	12.6311	0.384482	0.305419
12.8808	12.6306	0.384081	0.30672
12.8813	12.6302	0.38232	0.307293
12.8818	12.6297	0.384061	0.30725
12.8822	12.6292	0.383988	0.305918
12.8827	12.6288	0.384414	0.307114
12.8832	12.6283	0.384831	0.30817
12.8837	12.6278	0.38444	0.308286
12.8841	12.6273	0.384374	0.307406
12.8846	12.6269	0.386218	0.306181
12.8851	12.6264	0.384891	0.306811
12.8856	12.6259	0.384649	0.307358
12.886	12.6254	0.385385	0.30749
12.8865	12.6249	0.383264	0.305316
12.887	12.6245	0.383671	0.304046
12.8874	12.624	0.387587	0.30472
12.8879	12.6235	0.386721	0.303664
12.8884	12.623	0.383478	0.303825
12.8889	12.6226	0.385635	0.30211
12.8893	12.6221	0.385915	0.301067
12.8898	12.6217	0.386222	0.299466
12.8903	12.6212	0.385792	0.301903
12.8907	12.6207	0.385557	0.301448
12.8912	12.6202	0.385632	0.298883
12.8917	12.6197	0.385024	0.297276
12.8922	12.6193	0.387109	0.298469
12.8926	12.6188	0.385209	0.299639
12.8931	12.6183	0.385225	0.300973
12.8936	12.6179	0.385049	0.300427
12.8941	12.6174	0.384501	0.298707
12.8945	12.6169	0.385985	0.299379
12.895	12.6164	0.385622	0.299858
12.8955	12.616	0.384524	0.300903
12.8959	12.6155	0.384688	0.29855
12.8964	12.615	0.386859	0.298342
12.8969	12.6145	0.386694	0.297744
12.8974	12.6141	0.385775	0.300711
12.8978	12.6136	0.384288	0.298769
12.8983	12.6131	0.385117	0.297009
12.8988	12.6127	0.385843	0.297055
