# 1304     AichiSR QXAFS
# Start     : 8.9544
# End       : 9.0544
# Dir       : Backward
# Points    : 300
# ScanTime  : 1.01549
# Date      : 13.04.23 22:30
# Ring Cur. : 25.7[mA]
12.7557	12.6118	0.299633	0.228666
12.7562	12.6123	0.299125	0.230598
12.7566	12.6127	0.299756	0.231806
12.7571	12.6132	0.299655	0.231557
12.7576	12.6137	0.297478	0.229675
12.7581	12.6141	0.299252	0.230781
12.7585	12.6146	0.302383	0.235378
12.759	12.6151	0.299944	0.234651
12.7595	12.6156	0.300946	0.232898
12.7599	12.616	0.301672	0.233686
12.7604	12.6165	0.301201	0.234771
12.7609	12.617	0.301028	0.235407
12.7614	12.6175	0.302691	0.236763
12.7618	12.6179	0.303109	0.236539
12.7623	12.6184	0.299118	0.232614
12.7628	12.6189	0.301986	0.23449
12.7632	12.6193	0.302689	0.237061
12.7637	12.6198	0.300683	0.236765
12.7642	12.6203	0.301976	0.235687
12.7647	12.6208	0.301912	0.233971
12.7651	12.6212	0.301807	0.234289
12.7656	12.6217	0.301683	0.235751
12.7661	12.6222	0.303883	0.238734
12.7666	12.6227	0.301817	0.236363
12.767	12.6231	0.301767	0.235643
12.7675	12.6236	0.303322	0.236463
12.768	12.6241	0.302983	0.238773
12.7684	12.6245	0.302532	0.240797
12.7689	12.625	0.301125	0.238989
12.7694	12.6255	0.304305	0.240265
12.7699	12.626	0.303121	0.239405
12.7703	12.6265	0.302882	0.242034
12.7708	12.6269	0.300832	0.243039
12.7713	12.6274	0.304116	0.243112
12.7717	12.6279	0.30107	0.240714
12.7722	12.6284	0.301374	0.240969
12.7727	12.6288	0.304065	0.243883
12.7732	12.6293	0.301991	0.243843
12.7736	12.6298	0.30309	0.242968
12.7741	12.6302	0.302484	0.240866
12.7746	12.6307	0.303776	0.24293
12.7751	12.6312	0.302542	0.243211
12.7755	12.6317	0.303735	0.244586
12.776	12.6321	0.303207	0.243422
12.7765	12.6326	0.304096	0.241378
12.7769	12.6331	0.303952	0.242072
12.7774	12.6335	0.304665	0.244399
12.7779	12.634	0.302909	0.244208
12.7784	12.6345	0.302641	0.242018
12.7788	12.6349	0.305051	0.243698
12.7793	12.6354	0.305501	0.243219
12.7798	12.6359	0.30329	0.243972
12.7802	12.6364	0.304784	0.246004
12.7807	12.6368	0.304062	0.244769
12.7812	12.6373	0.304309	0.24411
12.7817	12.6378	0.306837	0.24764
12.7821	12.6383	0.305031	0.248438
12.7826	12.6387	0.30454	0.248375
12.7831	12.6392	0.3041	0.246966
12.7836	12.6396	0.306878	0.248021
12.784	12.6401	0.30449	0.248582
12.7845	12.6406	0.303698	0.250327
12.785	12.6411	0.305949	0.252169
12.7854	12.6415	0.305591	0.249583
12.7859	12.642	0.304899	0.248168
12.7864	12.6425	0.306851	0.249836
12.7869	12.6429	0.307013	0.251724
12.7873	12.6434	0.30405	0.248831
12.7878	12.6439	0.303377	0.246766
12.7883	12.6443	0.304477	0.247472
12.7887	12.6448	0.304696	0.246928
12.7892	12.6453	0.303152	0.24647
12.7897	12.6458	0.303323	0.246043
12.7902	12.6462	0.303342	0.243796
12.7906	12.6467	0.303573	0.242121
12.7911	12.6472	0.304987	0.241558
12.7916	12.6477	0.30598	0.243532
12.7921	12.6482	0.306499	0.242201
12.7925	12.6486	0.304566	0.237459
12.793	12.6491	0.3076	0.23793
12.7935	12.6496	0.307022	0.235857
12.7939	12.65	0.306619	0.234541
12.7944	12.6505	0.308645	0.235449
12.7949	12.651	0.307383	0.230128
12.7954	12.6515	0.307599	0.227555
12.7958	12.652	0.308477	0.227142
12.7963	12.6524	0.309398	0.228142
12.7968	12.6529	0.307517	0.225154
12.7972	12.6533	0.306062	0.220831
12.7977	12.6538	0.309241	0.220615
12.7982	12.6543	0.309931	0.219796
12.7987	12.6548	0.309136	0.218821
12.7991	12.6552	0.308959	0.217589
12.7996	12.6557	0.308915	0.215004
12.8001	12.6562	0.308995	0.213572
12.8006	12.6567	0.308521	0.213153
12.801	12.6572	0.312443	0.214904
12.8015	12.6576	0.308205	0.214466
12.802	12.6581	0.306933	0.21147
12.8024	12.6586	0.310469	0.21291
12.8029	12.6591	0.310888	0.214365
12.8034	12.6595	0.310576	0.216375
12.8039	12.66	0.308667	0.216317
12.8043	12.6604	0.309708	0.216167
12.8048	12.6609	0.310015	0.216583
12.8053	12.6614	0.311454	0.219954
12.8057	12.6619	0.312129	0.223963
12.8062	12.6623	0.311441	0.224549
12.8067	12.6628	0.309899	0.223049
12.8072	12.6633	0.311009	0.225109
12.8076	12.6637	0.311041	0.228494
12.8081	12.6642	0.310303	0.230886
12.8086	12.6647	0.311447	0.231765
12.8091	12.6651	0.309582	0.232703
12.8095	12.6656	0.312413	0.233539
12.81	12.6661	0.311317	0.236289
12.8105	12.6666	0.313219	0.241534
12.8109	12.6671	0.310066	0.240501
12.8114	12.6675	0.309382	0.241617
12.8119	12.668	0.314286	0.243211
12.8124	12.6685	0.310584	0.246313
12.8128	12.6689	0.310323	0.248813
12.8133	12.6694	0.311592	0.25154
12.8138	12.6699	0.312923	0.251161
12.8142	12.6703	0.311489	0.252395
12.8147	12.6708	0.312097	0.255416
12.8152	12.6713	0.312771	0.261655
12.8157	12.6717	0.311424	0.260191
12.8161	12.6722	0.309622	0.258952
12.8166	12.6727	0.312428	0.262116
12.8171	12.6731	0.311859	0.263739
12.8176	12.6736	0.309459	0.265129
12.818	12.6741	0.310893	0.266858
12.8185	12.6746	0.312812	0.266786
12.819	12.675	0.311047	0.266609
12.8194	12.6755	0.312239	0.267885
12.8199	12.676	0.312742	0.270033
12.8204	12.6765	0.311716	0.271556
12.8209	12.677	0.310423	0.266742
12.8213	12.6774	0.312711	0.268659
12.8218	12.6779	0.311959	0.270952
12.8223	12.6784	0.311792	0.27104
12.8227	12.6789	0.311094	0.27013
12.8232	12.6793	0.311824	0.268382
12.8237	12.6798	0.313931	0.266039
12.8242	12.6803	0.310161	0.264684
12.8246	12.6807	0.313914	0.266735
12.8251	12.6812	0.311722	0.262098
12.8256	12.6817	0.310341	0.257003
12.8261	12.6822	0.313937	0.255204
12.8265	12.6826	0.312952	0.254045
12.827	12.6831	0.310138	0.251796
12.8275	12.6836	0.310593	0.249327
12.8279	12.684	0.312517	0.247819
12.8284	12.6845	0.310807	0.242808
12.8289	12.685	0.310632	0.241623
12.8294	12.6855	0.311781	0.240903
12.8298	12.686	0.313246	0.237804
12.8303	12.6864	0.310289	0.232218
12.8308	12.6869	0.313739	0.229767
12.8312	12.6874	0.312158	0.228366
12.8317	12.6879	0.311277	0.224559
12.8322	12.6883	0.315034	0.222414
12.8327	12.6888	0.312971	0.217752
12.8331	12.6893	0.312268	0.215455
12.8336	12.6897	0.31187	0.216035
12.8341	12.6902	0.312439	0.218403
12.8346	12.6907	0.313062	0.217124
12.835	12.6911	0.312993	0.216631
12.8355	12.6916	0.316144	0.222069
12.836	12.6921	0.312791	0.226127
12.8364	12.6925	0.312285	0.230044
12.8369	12.693	0.312145	0.235649
12.8374	12.6935	0.313126	0.238768
12.8379	12.6939	0.312732	0.24132
12.8383	12.6944	0.31264	0.24755
12.8388	12.6949	0.313353	0.251858
12.8393	12.6954	0.310786	0.251682
12.8397	12.6958	0.312518	0.251999
12.8402	12.6963	0.317415	0.255396
12.8407	12.6968	0.315087	0.257292
12.8412	12.6973	0.311714	0.254183
12.8416	12.6977	0.311504	0.251354
12.8421	12.6982	0.312677	0.248563
12.8426	12.6987	0.311658	0.245556
12.8431	12.6991	0.312502	0.243896
12.8435	12.6996	0.311382	0.242142
12.844	12.7001	0.310773	0.237169
12.8445	12.7005	0.311478	0.232401
12.8449	12.701	0.314301	0.230211
12.8454	12.7015	0.311841	0.226936
12.8459	12.702	0.308753	0.223629
12.8464	12.7024	0.311471	0.221117
12.8468	12.7029	0.313166	0.220463
12.8473	12.7034	0.312196	0.219216
12.8478	12.7038	0.31075	0.221554
12.8482	12.7043	0.312369	0.225921
12.8487	12.7048	0.312127	0.228719
12.8492	12.7053	0.311215	0.232314
12.8497	12.7058	0.314554	0.240822
12.8501	12.7062	0.315588	0.25139
12.8506	12.7067	0.312397	0.260143
12.8511	12.7072	0.313443	0.268518
12.8516	12.7077	0.316404	0.280333
12.852	12.7082	0.31651	0.294089
12.8525	12.7086	0.315237	0.306701
12.853	12.7091	0.315185	0.320898
12.8534	12.7095	0.314923	0.332986
12.8539	12.71	0.315471	0.344118
12.8544	12.7105	0.31746	0.360413
12.8549	12.711	0.316947	0.37561
12.8553	12.7115	0.314275	0.383682
12.8558	12.7119	0.316601	0.396159
12.8563	12.7124	0.318157	0.408895
12.8567	12.7128	0.316556	0.416765
12.8572	12.7133	0.315831	0.426832
12.8577	12.7138	0.317858	0.437946
12.8582	12.7143	0.316034	0.440992
12.8586	12.7147	0.315751	0.448146
12.8591	12.7152	0.31907	0.459657
12.8596	12.7157	0.318245	0.471317
12.8601	12.7162	0.315948	0.477701
12.8605	12.7166	0.316134	0.484391
12.861	12.7171	0.31819	0.495392
12.8615	12.7176	0.316931	0.499704
12.8619	12.7181	0.317631	0.508107
12.8624	12.7185	0.315623	0.506467
12.8629	12.719	0.314979	0.500402
12.8634	12.7195	0.316497	0.496302
12.8638	12.7199	0.318282	0.498005
12.8643	12.7204	0.317581	0.493708
12.8648	12.7209	0.31521	0.49138
12.8652	12.7213	0.317005	0.491837
12.8657	12.7218	0.317009	0.500109
12.8662	12.7223	0.317057	0.512092
12.8667	12.7227	0.31722	0.535116
12.8671	12.7232	0.316852	0.571013
12.8676	12.7237	0.314363	0.607314
12.8681	12.7241	0.315538	0.654761
12.8686	12.7246	0.314253	0.708072
12.869	12.7251	0.315324	0.75633
12.8695	12.7256	0.312134	0.798841
12.87	12.726	0.314543	0.832331
12.8704	12.7265	0.316025	0.860076
12.8709	12.727	0.314973	0.876104
12.8714	12.7275	0.316419	0.894267
12.8719	12.728	0.318549	0.913032
12.8723	12.7284	0.316894	0.911774
12.8728	12.7289	0.316354	0.917906
12.8733	12.7294	0.318174	0.929517
12.8737	12.7298	0.318927	0.936236
12.8742	12.7303	0.317393	0.935637
12.8747	12.7308	0.317857	0.937676
12.8752	12.7313	0.320551	0.945176
12.8756	12.7317	0.318278	0.942601
12.8761	12.7322	0.318579	0.949202
12.8766	12.7327	0.319481	0.956218
12.8771	12.7331	0.317579	0.953442
12.8775	12.7336	0.320277	0.950465
12.878	12.7341	0.321484	0.960108
12.8785	12.7346	0.320086	0.962298
12.8789	12.735	0.318863	0.960184
12.8794	12.7355	0.321161	0.9644
12.8799	12.736	0.322156	0.966046
12.8804	12.7365	0.31917	0.962401
12.8808	12.737	0.32019	0.966136
12.8813	12.7374	0.321017	0.971052
12.8818	12.7379	0.320179	0.96647
12.8822	12.7384	0.321674	0.967618
12.8827	12.7389	0.322478	0.972093
12.8832	12.7393	0.322467	0.974832
12.8837	12.7398	0.320599	0.975174
12.8841	12.7402	0.322369	0.974719
12.8846	12.7407	0.322822	0.973518
12.8851	12.7412	0.32334	0.976125
12.8856	12.7417	0.321596	0.975796
12.886	12.7421	0.321499	0.981294
12.8865	12.7426	0.322876	0.978616
12.887	12.7431	0.324226	0.979446
12.8874	12.7435	0.323736	0.982212
12.8879	12.744	0.32397	0.98289
12.8884	12.7445	0.322256	0.984718
12.8889	12.745	0.322669	0.983564
12.8893	12.7454	0.324811	0.985561
12.8898	12.7459	0.324574	0.985231
12.8903	12.7464	0.323476	0.985233
12.8907	12.7469	0.324138	0.988611
12.8912	12.7474	0.323586	0.98518
12.8917	12.7478	0.325335	0.98702
12.8922	12.7483	0.326388	0.991606
12.8926	12.7488	0.325982	0.991544
12.8931	12.7492	0.322495	0.987998
12.8936	12.7497	0.326362	0.993537
12.8941	12.7501	0.328039	0.994044
12.8945	12.7506	0.324209	0.987776
12.895	12.7511	0.324029	0.990323
12.8955	12.7516	0.324721	0.99454
12.8959	12.752	0.324553	0.990298
12.8964	12.7525	0.32529	0.98859
12.8969	12.753	0.325766	0.99563
12.8974	12.7534	0.324947	0.992066
12.8978	12.7539	0.323527	0.990624
12.8983	12.7544	0.326357	0.992575
12.8988	12.7548	0.327469	0.994743
