# 1304     AichiSR QXAFS
# Start     : 8.9544
# End       : 9.0544
# Dir       : Forward
# Points    : 300
# ScanTime  : 1.01549
# Date      : 13.04.23 22:24
# Ring Cur. : 25.5[mA]
12.7557	12.7557	0.403368	1.22575
12.7562	12.7552	0.40138	1.22577
12.7566	12.7548	0.400339	1.22426
12.7571	12.7543	0.400126	1.22074
12.7576	12.7538	0.402517	1.22394
12.7581	12.7533	0.400885	1.22691
12.7585	12.7529	0.400426	1.22494
12.759	12.7524	0.401367	1.22235
12.7595	12.752	0.400064	1.21886
12.7599	12.7515	0.401248	1.21979
12.7604	12.751	0.401404	1.22283
12.7609	12.7505	0.400253	1.2232
12.7614	12.7501	0.399294	1.22032
12.7618	12.7496	0.400841	1.22172
12.7623	12.7491	0.402261	1.21871
12.7628	12.7487	0.401389	1.21994
12.7632	12.7482	0.400017	1.22044
12.7637	12.7478	0.400127	1.22036
12.7642	12.7473	0.400159	1.21778
12.7647	12.7468	0.400835	1.21656
12.7651	12.7463	0.399941	1.21843
12.7656	12.7459	0.399915	1.22065
12.7661	12.7454	0.401208	1.21972
12.7666	12.7449	0.401041	1.21523
12.767	12.7444	0.402139	1.21488
12.7675	12.7439	0.40028	1.21605
12.768	12.7435	0.398675	1.21749
12.7684	12.743	0.399136	1.21379
12.7689	12.7425	0.398668	1.21161
12.7694	12.7421	0.401138	1.21155
12.7699	12.7416	0.401637	1.21283
12.7703	12.7411	0.398823	1.21377
12.7708	12.7407	0.400337	1.21262
12.7713	12.7402	0.400155	1.21018
12.7717	12.7397	0.400818	1.20798
12.7722	12.7392	0.399845	1.21142
12.7727	12.7388	0.400089	1.21002
12.7732	12.7383	0.399328	1.20551
12.7736	12.7378	0.399286	1.20209
12.7741	12.7374	0.399731	1.20196
12.7746	12.7369	0.400361	1.20567
12.7751	12.7364	0.39907	1.20432
12.7755	12.7359	0.397131	1.20058
12.776	12.7354	0.400081	1.19858
12.7765	12.735	0.398636	1.19686
12.7769	12.7345	0.39931	1.19772
12.7774	12.734	0.398067	1.19833
12.7779	12.7335	0.397654	1.19297
12.7784	12.7331	0.398839	1.18896
12.7788	12.7326	0.398941	1.19108
12.7793	12.7321	0.398934	1.1896
12.7798	12.7317	0.397254	1.1861
12.7802	12.7312	0.397585	1.18118
12.7807	12.7307	0.398513	1.1762
12.7812	12.7302	0.397265	1.17438
12.7817	12.7298	0.397101	1.17319
12.7821	12.7293	0.395315	1.16603
12.7826	12.7288	0.398167	1.16332
12.7831	12.7284	0.397048	1.15091
12.7836	12.7279	0.396338	1.14572
12.784	12.7274	0.397014	1.13653
12.7845	12.7269	0.393448	1.12113
12.785	12.7265	0.394068	1.10453
12.7854	12.726	0.394023	1.08378
12.7859	12.7255	0.392541	1.05316
12.7864	12.725	0.391646	1.01932
12.7869	12.7246	0.389337	0.972311
12.7873	12.7241	0.39111	0.918394
12.7878	12.7236	0.393281	0.855262
12.7883	12.7231	0.393115	0.795751
12.7887	12.7227	0.395238	0.741839
12.7892	12.7222	0.394698	0.691936
12.7897	12.7218	0.394821	0.6576
12.7902	12.7213	0.396477	0.632808
12.7906	12.7208	0.395207	0.618596
12.7911	12.7203	0.395566	0.613163
12.7916	12.7199	0.393627	0.613703
12.7921	12.7194	0.394551	0.61229
12.7925	12.7189	0.395395	0.616145
12.793	12.7185	0.395352	0.623809
12.7935	12.718	0.395197	0.627638
12.7939	12.7175	0.392988	0.624554
12.7944	12.7171	0.393753	0.6216
12.7949	12.7166	0.394848	0.618414
12.7954	12.7161	0.393091	0.607738
12.7958	12.7156	0.393144	0.598694
12.7963	12.7151	0.391749	0.586284
12.7968	12.7147	0.393188	0.574615
12.7972	12.7142	0.394831	0.565251
12.7977	12.7137	0.393986	0.554864
12.7982	12.7132	0.394361	0.545597
12.7987	12.7128	0.39292	0.53513
12.7991	12.7123	0.392186	0.521742
12.7996	12.7119	0.395183	0.511326
12.8001	12.7114	0.393534	0.498796
12.8006	12.7109	0.393361	0.485506
12.801	12.7104	0.391349	0.47038
12.8015	12.71	0.392415	0.455135
12.802	12.7095	0.393388	0.439233
12.8024	12.709	0.392454	0.422113
12.8029	12.7086	0.391227	0.406216
12.8034	12.7081	0.390465	0.390254
12.8039	12.7076	0.390736	0.372379
12.8043	12.7071	0.392646	0.358276
12.8048	12.7067	0.39727	0.348531
12.8053	12.7062	0.394304	0.333815
12.8057	12.7057	0.391754	0.318788
12.8062	12.7052	0.391185	0.306178
12.8067	12.7047	0.393214	0.297572
12.8072	12.7042	0.39213	0.290016
12.8076	12.7038	0.392856	0.284615
12.8081	12.7033	0.390492	0.279075
12.8086	12.7028	0.391664	0.276038
12.8091	12.7024	0.39369	0.275241
12.8095	12.7019	0.393138	0.276305
12.81	12.7014	0.391715	0.278718
12.8105	12.701	0.392616	0.281129
12.8109	12.7005	0.39002	0.283394
12.8114	12.7	0.392721	0.286824
12.8119	12.6995	0.391619	0.293523
12.8124	12.6991	0.390771	0.299809
12.8128	12.6986	0.389908	0.302781
12.8133	12.6982	0.388844	0.304016
12.8138	12.6977	0.394039	0.307902
12.8142	12.6972	0.390909	0.31368
12.8147	12.6967	0.390975	0.316423
12.8152	12.6963	0.390954	0.317882
12.8157	12.6958	0.390065	0.31772
12.8161	12.6953	0.391964	0.317048
12.8166	12.6948	0.392179	0.315599
12.8171	12.6943	0.391512	0.314705
12.8176	12.6939	0.391155	0.309261
12.818	12.6934	0.390148	0.305008
12.8185	12.6929	0.39285	0.300061
12.819	12.6925	0.393922	0.297838
12.8194	12.692	0.391785	0.291681
12.8199	12.6916	0.391705	0.286695
12.8204	12.6911	0.392843	0.279321
12.8209	12.6906	0.394447	0.275724
12.8213	12.6901	0.393343	0.273442
12.8218	12.6897	0.390681	0.272735
12.8223	12.6892	0.392501	0.270766
12.8227	12.6887	0.391253	0.269464
12.8232	12.6883	0.393827	0.272208
12.8237	12.6878	0.393081	0.275397
12.8242	12.6873	0.392399	0.279223
12.8246	12.6868	0.392347	0.282689
12.8251	12.6864	0.390953	0.286177
12.8256	12.6859	0.392837	0.287994
12.8261	12.6854	0.39216	0.294059
12.8265	12.6849	0.392434	0.298781
12.827	12.6844	0.39087	0.302511
12.8275	12.684	0.390822	0.303732
12.8279	12.6835	0.392699	0.307515
12.8284	12.683	0.392582	0.311722
12.8289	12.6826	0.391192	0.316916
12.8294	12.6821	0.393576	0.316991
12.8298	12.6816	0.392248	0.319029
12.8303	12.6812	0.393105	0.322749
12.8308	12.6807	0.392471	0.328304
12.8312	12.6802	0.393697	0.33145
12.8317	12.6797	0.393566	0.333922
12.8322	12.6793	0.39416	0.333814
12.8327	12.6788	0.395306	0.336686
12.8331	12.6783	0.395037	0.339453
12.8336	12.6779	0.393997	0.34163
12.8341	12.6774	0.393551	0.341138
12.8346	12.6769	0.39505	0.339096
12.835	12.6764	0.397858	0.340409
12.8355	12.6759	0.394177	0.341644
12.836	12.6755	0.395307	0.341363
12.8364	12.675	0.393554	0.338462
12.8369	12.6745	0.394287	0.335229
12.8374	12.674	0.395358	0.337068
12.8379	12.6736	0.394385	0.336692
12.8383	12.6731	0.392993	0.336051
12.8388	12.6726	0.394897	0.33311
12.8393	12.6722	0.396301	0.33098
12.8397	12.6717	0.395855	0.330707
12.8402	12.6712	0.395284	0.330274
12.8407	12.6707	0.394887	0.329422
12.8412	12.6703	0.394148	0.325127
12.8416	12.6698	0.394161	0.321412
12.8421	12.6693	0.39664	0.319442
12.8426	12.6689	0.395324	0.319731
12.8431	12.6684	0.394301	0.315718
12.8435	12.668	0.39518	0.312927
12.844	12.6675	0.396703	0.309275
12.8445	12.667	0.395821	0.307758
12.8449	12.6665	0.395114	0.306455
12.8454	12.666	0.393355	0.304071
12.8459	12.6656	0.393416	0.300378
12.8464	12.6651	0.396308	0.297181
12.8468	12.6646	0.395352	0.296743
12.8473	12.6641	0.394139	0.294586
12.8478	12.6637	0.394669	0.292361
12.8482	12.6632	0.394576	0.289268
12.8487	12.6627	0.395062	0.287007
12.8492	12.6623	0.395585	0.285565
12.8497	12.6618	0.395981	0.284431
12.8501	12.6614	0.395132	0.283484
12.8506	12.6609	0.394448	0.279653
12.8511	12.6604	0.394819	0.275911
12.8516	12.6599	0.396233	0.276274
12.852	12.6595	0.394023	0.274702
12.8525	12.659	0.392338	0.272775
12.853	12.6585	0.394204	0.270766
12.8534	12.6581	0.393631	0.271113
12.8539	12.6576	0.393552	0.270249
12.8544	12.6571	0.394467	0.27254
12.8549	12.6566	0.393288	0.271886
12.8553	12.6562	0.394391	0.271663
12.8558	12.6557	0.394733	0.271561
12.8563	12.6552	0.394614	0.272646
12.8567	12.6547	0.394811	0.276585
12.8572	12.6542	0.39408	0.276184
12.8577	12.6538	0.39353	0.277041
12.8582	12.6533	0.39488	0.280165
12.8586	12.6528	0.395788	0.282446
12.8591	12.6524	0.395577	0.285409
12.8596	12.6519	0.39331	0.287133
12.8601	12.6514	0.394846	0.288954
12.8605	12.6509	0.395122	0.290485
12.861	12.6505	0.395833	0.294616
12.8615	12.65	0.394785	0.297526
12.8619	12.6495	0.39292	0.30024
12.8624	12.6491	0.394376	0.300636
12.8629	12.6486	0.395616	0.302729
12.8634	12.6481	0.393625	0.305453
12.8638	12.6476	0.394132	0.307829
12.8643	12.6472	0.391007	0.308713
12.8648	12.6467	0.391017	0.307527
12.8652	12.6462	0.390642	0.30986
12.8657	12.6457	0.391035	0.311973
12.8662	12.6452	0.390623	0.314213
12.8667	12.6448	0.389048	0.312915
12.8671	12.6443	0.389685	0.313798
12.8676	12.6438	0.391946	0.315071
12.8681	12.6433	0.392435	0.316746
12.8686	12.6429	0.392548	0.320023
12.869	12.6424	0.392877	0.320625
12.8695	12.642	0.391779	0.320219
12.87	12.6415	0.394351	0.318832
12.8704	12.641	0.395478	0.321312
12.8709	12.6405	0.393164	0.321817
12.8714	12.6401	0.391747	0.319988
12.8719	12.6396	0.392687	0.319244
12.8723	12.6391	0.393119	0.318169
12.8728	12.6387	0.392904	0.317994
12.8733	12.6382	0.393888	0.320088
12.8737	12.6377	0.392271	0.319817
12.8742	12.6373	0.391813	0.316455
12.8747	12.6368	0.393631	0.314089
12.8752	12.6363	0.392227	0.316393
12.8756	12.6358	0.392811	0.316537
12.8761	12.6354	0.391427	0.313993
12.8766	12.6349	0.391048	0.312377
12.8771	12.6344	0.394101	0.312482
12.8775	12.6339	0.392555	0.312404
12.878	12.6335	0.391175	0.3136
12.8785	12.633	0.393081	0.311975
12.8789	12.6325	0.392215	0.311485
12.8794	12.6321	0.392228	0.309522
12.8799	12.6316	0.393384	0.311791
12.8804	12.6311	0.391157	0.314402
12.8808	12.6306	0.391964	0.311964
12.8813	12.6302	0.389395	0.310816
12.8818	12.6297	0.392323	0.310659
12.8822	12.6292	0.391718	0.312448
12.8827	12.6288	0.391418	0.314752
12.8832	12.6283	0.390317	0.314181
12.8837	12.6278	0.389773	0.311792
12.8841	12.6274	0.392517	0.312017
12.8846	12.6269	0.391554	0.313453
12.8851	12.6264	0.389903	0.313173
12.8856	12.6259	0.390051	0.310966
12.886	12.6254	0.390017	0.31028
12.8865	12.625	0.390358	0.309787
12.887	12.6245	0.39072	0.309759
12.8874	12.624	0.390065	0.309633
12.8879	12.6235	0.389865	0.307804
12.8884	12.6231	0.388149	0.305756
12.8889	12.6226	0.390488	0.305229
12.8893	12.6221	0.390917	0.305923
12.8898	12.6217	0.387752	0.307215
12.8903	12.6212	0.38986	0.304445
12.8907	12.6207	0.389428	0.302447
12.8912	12.6202	0.389995	0.302596
12.8917	12.6198	0.38905	0.302822
12.8922	12.6193	0.389197	0.30446
12.8926	12.6188	0.388202	0.303512
12.8931	12.6184	0.387835	0.300643
12.8936	12.6179	0.389392	0.303351
12.8941	12.6174	0.388453	0.303279
12.8945	12.6169	0.388946	0.302632
12.895	12.6165	0.388726	0.302421
12.8955	12.616	0.388112	0.30038
12.8959	12.6155	0.389116	0.300155
12.8964	12.615	0.38907	0.301867
12.8969	12.6145	0.388659	0.302268
12.8974	12.6141	0.388591	0.301041
12.8978	12.6136	0.387823	0.29859
12.8983	12.6131	0.389423	0.298761
12.8988	12.6127	0.388613	0.300256
