# 1304     AichiSR QXAFS
# Start     : 8.9544
# End       : 9.0544
# Dir       : Backward
# Points    : 300
# ScanTime  : 1.01549
# Date      : 13.04.23 22:24
# Ring Cur. : 25.5[mA]
12.7557	12.6118	0.304808	0.231707
12.7562	12.6122	0.305025	0.233549
12.7566	12.6127	0.304487	0.23653
12.7571	12.6131	0.306059	0.237717
12.7576	12.6136	0.306453	0.236123
12.7581	12.6141	0.304595	0.233397
12.7585	12.6145	0.30667	0.23723
12.759	12.615	0.306406	0.240005
12.7595	12.6155	0.306137	0.239362
12.7599	12.616	0.307902	0.239026
12.7604	12.6165	0.307437	0.238097
12.7609	12.6169	0.306873	0.237607
12.7614	12.6174	0.307496	0.239979
12.7618	12.6179	0.306969	0.240983
12.7623	12.6184	0.304452	0.238572
12.7628	12.6188	0.306978	0.236699
12.7632	12.6193	0.309505	0.239642
12.7637	12.6198	0.307419	0.239706
12.7642	12.6202	0.304902	0.239899
12.7647	12.6207	0.308914	0.240222
12.7651	12.6212	0.307259	0.239119
12.7656	12.6217	0.306929	0.23737
12.7661	12.6221	0.309406	0.243182
12.7666	12.6226	0.308406	0.242038
12.767	12.6231	0.306727	0.24192
12.7675	12.6235	0.305572	0.239952
12.768	12.624	0.309138	0.241864
12.7684	12.6245	0.307507	0.244596
12.7689	12.625	0.304782	0.244606
12.7694	12.6254	0.308324	0.244233
12.7699	12.6259	0.307218	0.243653
12.7703	12.6264	0.307624	0.243929
12.7708	12.6269	0.307455	0.245021
12.7713	12.6274	0.30847	0.2489
12.7717	12.6278	0.306834	0.24632
12.7722	12.6283	0.307086	0.245321
12.7727	12.6288	0.308487	0.246656
12.7732	12.6292	0.30845	0.248524
12.7736	12.6297	0.308924	0.248885
12.7741	12.6302	0.310655	0.248574
12.7746	12.6306	0.308344	0.245118
12.7751	12.6311	0.307132	0.245382
12.7755	12.6316	0.309414	0.247688
12.776	12.6321	0.308618	0.247754
12.7765	12.6325	0.30785	0.24461
12.7769	12.633	0.309775	0.244447
12.7774	12.6335	0.308923	0.245201
12.7779	12.6339	0.307014	0.247447
12.7784	12.6344	0.30894	0.247349
12.7788	12.6349	0.30953	0.247428
12.7793	12.6354	0.308609	0.244971
12.7798	12.6358	0.309523	0.247519
12.7802	12.6363	0.310542	0.250382
12.7807	12.6368	0.308305	0.24996
12.7812	12.6373	0.308422	0.247965
12.7817	12.6377	0.310283	0.250621
12.7821	12.6382	0.308279	0.248623
12.7826	12.6387	0.308136	0.250933
12.7831	12.6391	0.308056	0.252703
12.7836	12.6396	0.310456	0.252864
12.784	12.6401	0.308675	0.250789
12.7845	12.6405	0.308617	0.250893
12.785	12.641	0.309548	0.253918
12.7854	12.6415	0.309718	0.254536
12.7859	12.6419	0.309054	0.252767
12.7864	12.6424	0.309151	0.25142
12.7869	12.6429	0.30976	0.253403
12.7873	12.6433	0.309105	0.253941
12.7878	12.6438	0.308075	0.251504
12.7883	12.6443	0.308017	0.250186
12.7887	12.6447	0.309044	0.24914
12.7892	12.6452	0.305731	0.247153
12.7897	12.6457	0.306558	0.247745
12.7902	12.6462	0.306767	0.246593
12.7906	12.6467	0.306709	0.244843
12.7911	12.6472	0.307357	0.243522
12.7916	12.6476	0.308445	0.243987
12.7921	12.6481	0.307736	0.24402
12.7925	12.6486	0.308746	0.241412
12.793	12.6491	0.311524	0.240362
12.7935	12.6495	0.311766	0.237606
12.7939	12.65	0.310866	0.237054
12.7944	12.6505	0.310788	0.236021
12.7949	12.6509	0.312475	0.234892
12.7954	12.6514	0.311474	0.230173
12.7958	12.6519	0.313322	0.229678
12.7963	12.6524	0.316325	0.232049
12.7968	12.6528	0.311596	0.228055
12.7972	12.6533	0.310204	0.225136
12.7977	12.6538	0.312296	0.222347
12.7982	12.6542	0.313414	0.220346
12.7987	12.6547	0.312079	0.219281
12.7991	12.6552	0.313297	0.219573
12.7996	12.6557	0.314295	0.218852
12.8001	12.6561	0.311307	0.216279
12.8006	12.6566	0.314335	0.216391
12.801	12.6571	0.312438	0.216521
12.8015	12.6576	0.310968	0.215417
12.802	12.6581	0.312691	0.215463
12.8024	12.6585	0.311891	0.214109
12.8029	12.659	0.314252	0.216096
12.8034	12.6595	0.312107	0.217016
12.8039	12.6599	0.312759	0.218488
12.8043	12.6604	0.31252	0.21971
12.8048	12.6609	0.31222	0.219513
12.8053	12.6613	0.3157	0.222705
12.8057	12.6618	0.314136	0.224055
12.8062	12.6623	0.314022	0.22647
12.8067	12.6627	0.314215	0.227896
12.8072	12.6632	0.314247	0.229405
12.8076	12.6637	0.316744	0.229802
12.8081	12.6641	0.315003	0.232622
12.8086	12.6646	0.314132	0.236529
12.8091	12.6651	0.316043	0.236692
12.8095	12.6656	0.313726	0.236339
12.81	12.666	0.316654	0.239251
12.8105	12.6665	0.317005	0.243051
12.8109	12.667	0.315572	0.244362
12.8114	12.6675	0.314438	0.245852
12.8119	12.6679	0.317409	0.249099
12.8124	12.6684	0.318411	0.250108
12.8128	12.6689	0.314011	0.252828
12.8133	12.6693	0.317868	0.257728
12.8138	12.6698	0.316817	0.257334
12.8142	12.6703	0.315511	0.258146
12.8147	12.6707	0.319464	0.260414
12.8152	12.6712	0.31847	0.26462
12.8157	12.6717	0.316788	0.264876
12.8161	12.6722	0.318009	0.266406
12.8166	12.6726	0.318386	0.268601
12.8171	12.6731	0.318875	0.268349
12.8176	12.6735	0.317833	0.269963
12.818	12.674	0.317678	0.272808
12.8185	12.6745	0.317856	0.2729
12.819	12.675	0.31711	0.270907
12.8194	12.6755	0.320002	0.273922
12.8199	12.6759	0.319564	0.275687
12.8204	12.6764	0.318496	0.277983
12.8209	12.6769	0.32021	0.276471
12.8213	12.6774	0.321098	0.275833
12.8218	12.6779	0.321956	0.276874
12.8223	12.6783	0.320752	0.277131
12.8227	12.6788	0.321088	0.278092
12.8232	12.6793	0.320328	0.274789
12.8237	12.6797	0.321029	0.273306
12.8242	12.6802	0.321021	0.271089
12.8246	12.6807	0.321036	0.271128
12.8251	12.6812	0.319853	0.269056
12.8256	12.6816	0.320284	0.265159
12.8261	12.6821	0.321246	0.262995
12.8265	12.6826	0.321934	0.261997
12.827	12.683	0.320613	0.258955
12.8275	12.6835	0.319743	0.257788
12.8279	12.684	0.321819	0.254712
12.8284	12.6844	0.321091	0.251999
12.8289	12.6849	0.322032	0.249793
12.8294	12.6854	0.322405	0.247791
12.8298	12.6859	0.321483	0.244547
12.8303	12.6864	0.322037	0.24033
12.8308	12.6868	0.322306	0.236339
12.8312	12.6873	0.324366	0.233709
12.8317	12.6878	0.32195	0.231011
12.8322	12.6883	0.32196	0.229034
12.8327	12.6887	0.323089	0.225856
12.8331	12.6892	0.323658	0.22275
12.8336	12.6897	0.323739	0.22147
12.8341	12.6901	0.325504	0.224249
12.8346	12.6906	0.323307	0.22492
12.835	12.6911	0.322824	0.226712
12.8355	12.6916	0.323706	0.229589
12.836	12.692	0.325718	0.232322
12.8364	12.6925	0.322773	0.237096
12.8369	12.6929	0.322871	0.244175
12.8374	12.6934	0.324313	0.248668
12.8379	12.6939	0.325071	0.250257
12.8383	12.6943	0.324083	0.255785
12.8388	12.6948	0.32412	0.259482
12.8393	12.6953	0.323332	0.262656
12.8397	12.6958	0.323495	0.262361
12.8402	12.6963	0.326463	0.265311
12.8407	12.6967	0.326228	0.262731
12.8412	12.6972	0.323743	0.262997
12.8416	12.6977	0.324613	0.262267
12.8421	12.6982	0.326122	0.26007
12.8426	12.6986	0.324558	0.254829
12.8431	12.6991	0.325015	0.252859
12.8435	12.6995	0.325681	0.249898
12.844	12.7	0.322538	0.246256
12.8445	12.7005	0.322176	0.240941
12.8449	12.701	0.326429	0.238795
12.8454	12.7014	0.324954	0.234759
12.8459	12.7019	0.322938	0.230669
12.8464	12.7024	0.325024	0.231139
12.8468	12.7028	0.32496	0.229256
12.8473	12.7033	0.325349	0.228019
12.8478	12.7038	0.325486	0.229557
12.8482	12.7042	0.325625	0.23489
12.8487	12.7047	0.323939	0.239004
12.8492	12.7052	0.325556	0.242768
12.8497	12.7057	0.328072	0.251126
12.8501	12.7062	0.326368	0.26066
12.8506	12.7067	0.325243	0.269788
12.8511	12.7071	0.327415	0.282251
12.8516	12.7076	0.327543	0.29147
12.852	12.7081	0.328102	0.303305
12.8525	12.7086	0.327411	0.319481
12.853	12.709	0.3279	0.333444
12.8534	12.7095	0.324909	0.344894
12.8539	12.71	0.327918	0.358587
12.8544	12.7104	0.329866	0.375497
12.8549	12.7109	0.328925	0.386804
12.8553	12.7114	0.325583	0.398083
12.8558	12.7119	0.326867	0.412808
12.8563	12.7123	0.328077	0.421037
12.8567	12.7128	0.327371	0.431548
12.8572	12.7132	0.327734	0.441101
12.8577	12.7137	0.328271	0.45029
12.8582	12.7142	0.327698	0.459563
12.8586	12.7147	0.326501	0.465162
12.8591	12.7152	0.32949	0.474585
12.8596	12.7156	0.328968	0.485178
12.8601	12.7161	0.328258	0.493078
12.8605	12.7166	0.325916	0.501142
12.861	12.7171	0.327163	0.508187
12.8615	12.7175	0.329279	0.515044
12.8619	12.718	0.327616	0.520583
12.8624	12.7185	0.327741	0.523776
12.8629	12.7189	0.32553	0.519159
12.8634	12.7194	0.325739	0.514791
12.8638	12.7199	0.328983	0.513096
12.8643	12.7203	0.328374	0.508408
12.8648	12.7208	0.326052	0.505233
12.8652	12.7213	0.325948	0.508741
12.8657	12.7218	0.327934	0.513696
12.8662	12.7222	0.325758	0.526919
12.8667	12.7227	0.326809	0.552314
12.8671	12.7231	0.326044	0.587282
12.8676	12.7236	0.323361	0.627293
12.8681	12.7241	0.322344	0.671287
12.8686	12.7245	0.325545	0.72941
12.869	12.725	0.323238	0.779572
12.8695	12.7255	0.321518	0.818767
12.87	12.726	0.323079	0.854536
12.8704	12.7265	0.323732	0.879493
12.8709	12.7269	0.326571	0.901857
12.8714	12.7274	0.325567	0.918326
12.8719	12.7279	0.327295	0.933196
12.8723	12.7284	0.324482	0.933639
12.8728	12.7288	0.322923	0.940267
12.8733	12.7293	0.328416	0.954744
12.8737	12.7298	0.326388	0.958179
12.8742	12.7302	0.323287	0.961027
12.8747	12.7307	0.325792	0.965939
12.8752	12.7312	0.326944	0.971097
12.8756	12.7317	0.326333	0.968128
12.8761	12.7321	0.32718	0.973313
12.8766	12.7326	0.328191	0.98124
12.8771	12.7331	0.326082	0.978206
12.8775	12.7335	0.325488	0.975021
12.878	12.734	0.328719	0.981866
12.8785	12.7345	0.327427	0.986191
12.8789	12.735	0.327228	0.98367
12.8794	12.7355	0.326852	0.985737
12.8799	12.7359	0.326095	0.984884
12.8804	12.7364	0.329445	0.987582
12.8808	12.7369	0.326559	0.990587
12.8813	12.7374	0.327543	0.995111
12.8818	12.7379	0.327093	0.9882
12.8822	12.7383	0.326008	0.988511
12.8827	12.7388	0.330289	0.996064
12.8832	12.7393	0.329335	0.995921
12.8837	12.7397	0.326391	0.993785
12.8841	12.7402	0.326728	0.993009
12.8846	12.7407	0.328813	0.995838
12.8851	12.7411	0.328119	0.994255
12.8856	12.7416	0.330214	0.998032
12.886	12.7421	0.330684	1.00412
12.8865	12.7425	0.327724	0.996869
12.887	12.743	0.326689	0.994632
12.8874	12.7435	0.331903	1.00312
12.8879	12.744	0.329825	1.00444
12.8884	12.7444	0.32799	1.00158
12.8889	12.7449	0.33008	1.00293
12.8893	12.7454	0.331616	1.00201
12.8898	12.7459	0.330537	1.00623
12.8903	12.7463	0.331177	1.00718
12.8907	12.7468	0.330711	1.00722
12.8912	12.7473	0.328975	1.00414
12.8917	12.7478	0.330859	1.00503
12.8922	12.7482	0.333266	1.01174
12.8926	12.7487	0.330404	1.009
12.8931	12.7492	0.330289	1.00633
12.8936	12.7496	0.330431	1.01074
12.8941	12.7501	0.330758	1.00799
12.8945	12.7506	0.330694	1.00226
12.895	12.751	0.331362	1.00762
12.8955	12.7515	0.330581	1.00972
12.8959	12.752	0.329664	1.00285
12.8964	12.7524	0.329579	1.00093
12.8969	12.7529	0.33466	1.01234
12.8974	12.7534	0.330514	1.01056
12.8978	12.7538	0.329444	1.00815
12.8983	12.7543	0.331196	1.01073
12.8988	12.7548	0.331327	1.01329
