# 1304     AichiSR QXAFS
# Start     : 8.9544
# End       : 9.0544
# Dir       : Backward
# Points    : 300
# ScanTime  : 1.01549
# Date      : 13.04.23 22:30
# Ring Cur. : 25.7[mA]
12.7557	12.6118	0.29613	0.227154
12.7562	12.6123	0.294762	0.225167
12.7566	12.6127	0.298734	0.229658
12.7571	12.6132	0.297531	0.230753
12.7576	12.6137	0.297722	0.230989
12.7581	12.6141	0.296205	0.229963
12.7585	12.6146	0.2995	0.231218
12.759	12.6151	0.300259	0.231478
12.7595	12.6156	0.300379	0.233947
12.7599	12.616	0.300772	0.235671
12.7604	12.6165	0.29851	0.233608
12.7609	12.617	0.298693	0.23267
12.7614	12.6175	0.302844	0.234289
12.7618	12.6179	0.302796	0.235212
12.7623	12.6184	0.298061	0.233853
12.7628	12.6189	0.299556	0.23444
12.7632	12.6194	0.301378	0.234362
12.7637	12.6198	0.302657	0.234415
12.7642	12.6203	0.301232	0.235833
12.7647	12.6208	0.302954	0.238845
12.7651	12.6213	0.301298	0.235942
12.7656	12.6217	0.297934	0.23207
12.7661	12.6222	0.304143	0.236699
12.7666	12.6227	0.30328	0.238088
12.767	12.6231	0.302553	0.238452
12.7675	12.6236	0.300834	0.237289
12.768	12.6241	0.301527	0.238381
12.7684	12.6245	0.303112	0.238723
12.7689	12.625	0.302937	0.240654
12.7694	12.6255	0.303879	0.242953
12.7699	12.626	0.301795	0.240973
12.7703	12.6265	0.301096	0.240301
12.7708	12.6269	0.305313	0.242816
12.7713	12.6274	0.303292	0.244395
12.7717	12.6279	0.302789	0.24382
12.7722	12.6284	0.302153	0.24195
12.7727	12.6288	0.301751	0.241684
12.7732	12.6293	0.304239	0.243082
12.7736	12.6298	0.303059	0.244226
12.7741	12.6302	0.303727	0.245055
12.7746	12.6307	0.301701	0.243014
12.7751	12.6312	0.30244	0.241795
12.7755	12.6317	0.307772	0.244127
12.776	12.6321	0.306084	0.244392
12.7765	12.6326	0.304246	0.245431
12.7769	12.6331	0.30509	0.244598
12.7774	12.6335	0.305523	0.242902
12.7779	12.634	0.305513	0.244038
12.7784	12.6345	0.30529	0.245239
12.7788	12.6349	0.305706	0.246165
12.7793	12.6354	0.304846	0.244396
12.7798	12.6359	0.303318	0.242866
12.7802	12.6364	0.307864	0.245848
12.7807	12.6368	0.306693	0.247489
12.7812	12.6373	0.303699	0.246866
12.7817	12.6378	0.30543	0.248959
12.7821	12.6383	0.306107	0.246831
12.7826	12.6387	0.309099	0.250256
12.7831	12.6392	0.30683	0.250546
12.7836	12.6396	0.308276	0.252759
12.784	12.6401	0.306986	0.250419
12.7845	12.6406	0.306344	0.249212
12.785	12.6411	0.311019	0.251719
12.7854	12.6415	0.31012	0.25343
12.7859	12.642	0.305443	0.251221
12.7864	12.6425	0.307876	0.251437
12.7869	12.6429	0.30679	0.249982
12.7873	12.6434	0.306587	0.248812
12.7878	12.6439	0.30704	0.250204
12.7883	12.6443	0.307155	0.251629
12.7887	12.6448	0.305559	0.248574
12.7892	12.6453	0.303892	0.245788
12.7897	12.6458	0.308817	0.248678
12.7902	12.6463	0.308176	0.248509
12.7906	12.6467	0.307843	0.245727
12.7911	12.6472	0.307787	0.243592
12.7916	12.6477	0.308611	0.242936
12.7921	12.6482	0.309021	0.242999
12.7925	12.6486	0.309198	0.241979
12.793	12.6491	0.308957	0.240929
12.7935	12.6496	0.308232	0.237271
12.7939	12.65	0.307626	0.234683
12.7944	12.6505	0.310257	0.23397
12.7949	12.651	0.311391	0.234586
12.7954	12.6515	0.309738	0.232563
12.7958	12.652	0.31057	0.229453
12.7963	12.6524	0.312417	0.227467
12.7968	12.6529	0.313084	0.226157
12.7972	12.6534	0.313631	0.225333
12.7977	12.6538	0.311238	0.225095
12.7982	12.6543	0.31176	0.221891
12.7987	12.6548	0.31042	0.218081
12.7991	12.6553	0.312915	0.218382
12.7996	12.6557	0.312883	0.218603
12.8001	12.6562	0.30944	0.21704
12.8006	12.6567	0.310131	0.213329
12.801	12.6572	0.312892	0.214048
12.8015	12.6576	0.313686	0.216247
12.802	12.6581	0.311968	0.215318
12.8024	12.6586	0.311587	0.215855
12.8029	12.6591	0.311375	0.215838
12.8034	12.6595	0.312006	0.215419
12.8039	12.66	0.313899	0.218761
12.8043	12.6605	0.316573	0.221636
12.8048	12.6609	0.312286	0.221963
12.8053	12.6614	0.31202	0.222425
12.8057	12.6619	0.314665	0.223464
12.8062	12.6623	0.315155	0.224957
12.8067	12.6628	0.314097	0.227524
12.8072	12.6633	0.314319	0.22993
12.8076	12.6637	0.312864	0.227798
12.8081	12.6642	0.312079	0.230183
12.8086	12.6647	0.31418	0.233913
12.8091	12.6652	0.316528	0.23683
12.8095	12.6656	0.311732	0.238443
12.81	12.6661	0.314065	0.239284
12.8105	12.6666	0.316969	0.240845
12.8109	12.6671	0.315343	0.243898
12.8114	12.6675	0.314836	0.246542
12.8119	12.668	0.316696	0.250632
12.8124	12.6685	0.313451	0.24858
12.8128	12.6689	0.313263	0.24836
12.8133	12.6694	0.316308	0.253565
12.8138	12.6699	0.314603	0.25575
12.8142	12.6703	0.312979	0.25776
12.8147	12.6708	0.310694	0.256457
12.8152	12.6713	0.315375	0.258737
12.8157	12.6717	0.315242	0.26148
12.8161	12.6722	0.314578	0.263942
12.8166	12.6727	0.315682	0.267188
12.8171	12.6731	0.31621	0.266536
12.8176	12.6736	0.316657	0.266907
12.818	12.6741	0.316497	0.269177
12.8185	12.6746	0.318469	0.272864
12.819	12.675	0.314156	0.27202
12.8194	12.6755	0.313334	0.270656
12.8199	12.676	0.316373	0.270757
12.8204	12.6765	0.315132	0.271764
12.8209	12.677	0.314464	0.273391
12.8213	12.6774	0.314369	0.274198
12.8218	12.6779	0.313934	0.271199
12.8223	12.6784	0.313847	0.269298
12.8227	12.6789	0.317129	0.273652
12.8232	12.6793	0.319034	0.273305
12.8237	12.6798	0.316433	0.270212
12.8242	12.6803	0.315878	0.267945
12.8246	12.6807	0.318617	0.266032
12.8251	12.6812	0.317356	0.263116
12.8256	12.6817	0.317298	0.263675
12.8261	12.6822	0.317343	0.260657
12.8265	12.6826	0.315444	0.256431
12.827	12.6831	0.3138	0.252821
12.8275	12.6836	0.316684	0.252782
12.8279	12.684	0.316528	0.252447
12.8284	12.6845	0.314724	0.248404
12.8289	12.685	0.313393	0.245145
12.8294	12.6855	0.316759	0.242306
12.8298	12.686	0.31545	0.239328
12.8303	12.6864	0.316775	0.239101
12.8308	12.6869	0.317938	0.23512
12.8312	12.6874	0.316818	0.22857
12.8317	12.6879	0.317225	0.22594
12.8322	12.6883	0.3203	0.224669
12.8327	12.6888	0.319709	0.224073
12.8331	12.6893	0.317402	0.221209
12.8336	12.6897	0.316514	0.217791
12.8341	12.6902	0.316864	0.21777
12.8346	12.6907	0.317142	0.219001
12.835	12.6911	0.317215	0.22312
12.8355	12.6916	0.318092	0.226366
12.836	12.6921	0.315619	0.227552
12.8364	12.6925	0.318412	0.232286
12.8369	12.693	0.317593	0.238695
12.8374	12.6935	0.319854	0.244752
12.8379	12.6939	0.317096	0.248027
12.8383	12.6944	0.316135	0.249981
12.8388	12.6949	0.317347	0.253809
12.8393	12.6954	0.316854	0.255929
12.8397	12.6958	0.316526	0.259342
12.8402	12.6963	0.317626	0.260628
12.8407	12.6968	0.315962	0.255999
12.8412	12.6973	0.31354	0.254608
12.8416	12.6977	0.317291	0.255276
12.8421	12.6982	0.318862	0.255605
12.8426	12.6987	0.316994	0.249559
12.8431	12.6991	0.316211	0.246065
12.8435	12.6996	0.317356	0.242213
12.844	12.7001	0.316992	0.239843
12.8445	12.7005	0.31607	0.239034
12.8449	12.701	0.31844	0.235027
12.8454	12.7015	0.317801	0.22947
12.8459	12.702	0.315787	0.22428
12.8464	12.7024	0.317808	0.225075
12.8468	12.7029	0.318554	0.225621
12.8473	12.7034	0.316954	0.22439
12.8478	12.7038	0.315335	0.223542
12.8482	12.7043	0.318535	0.226641
12.8487	12.7048	0.316407	0.231596
12.8492	12.7053	0.316704	0.238674
12.8497	12.7058	0.318834	0.247435
12.8501	12.7062	0.316164	0.251654
12.8506	12.7067	0.317074	0.261242
12.8511	12.7072	0.318106	0.27358
12.8516	12.7077	0.31916	0.288239
12.852	12.7082	0.319183	0.297452
12.8525	12.7086	0.317901	0.310352
12.853	12.7091	0.319763	0.323469
12.8534	12.7096	0.317499	0.336849
12.8539	12.71	0.318748	0.353859
12.8544	12.7105	0.319865	0.366025
12.8549	12.711	0.317917	0.374648
12.8553	12.7115	0.317577	0.384722
12.8558	12.7119	0.318203	0.399685
12.8563	12.7124	0.317621	0.412417
12.8567	12.7128	0.318819	0.420166
12.8572	12.7133	0.317757	0.425081
12.8577	12.7138	0.320374	0.437357
12.8582	12.7143	0.317021	0.444218
12.8586	12.7147	0.317485	0.455077
12.8591	12.7152	0.319443	0.464475
12.8596	12.7157	0.31859	0.470639
12.8601	12.7162	0.319304	0.475387
12.8605	12.7166	0.317201	0.486689
12.861	12.7171	0.31893	0.499925
12.8615	12.7176	0.317206	0.503423
12.8619	12.7181	0.315926	0.503233
12.8624	12.7185	0.318094	0.506244
12.8629	12.719	0.314653	0.500505
12.8634	12.7195	0.314444	0.499658
12.8638	12.7199	0.318658	0.500207
12.8643	12.7204	0.315378	0.489026
12.8648	12.7209	0.316687	0.487548
12.8652	12.7213	0.315908	0.491909
12.8657	12.7218	0.317278	0.50304
12.8662	12.7223	0.314959	0.511832
12.8667	12.7227	0.314505	0.533615
12.8671	12.7232	0.317778	0.568126
12.8676	12.7237	0.312578	0.604584
12.8681	12.7241	0.313098	0.657874
12.8686	12.7246	0.313319	0.711159
12.869	12.7251	0.311764	0.751666
12.8695	12.7256	0.310326	0.788663
12.87	12.726	0.312608	0.828147
12.8704	12.7265	0.315897	0.860276
12.8709	12.727	0.313045	0.869301
12.8714	12.7275	0.314083	0.886595
12.8719	12.7279	0.31725	0.900323
12.8723	12.7284	0.314463	0.90563
12.8728	12.7289	0.315424	0.916029
12.8733	12.7294	0.316592	0.925571
12.8737	12.7298	0.31548	0.925919
12.8742	12.7303	0.315007	0.922671
12.8747	12.7308	0.316391	0.932413
12.8752	12.7313	0.317489	0.943778
12.8756	12.7317	0.31368	0.934272
12.8761	12.7322	0.314659	0.938815
12.8766	12.7327	0.320231	0.949149
12.8771	12.7331	0.318058	0.950834
12.8775	12.7336	0.315451	0.945729
12.878	12.7341	0.317536	0.950988
12.8785	12.7346	0.317311	0.952443
12.8789	12.735	0.316595	0.944419
12.8794	12.7355	0.316806	0.952925
12.8799	12.736	0.318109	0.961612
12.8804	12.7365	0.316586	0.955558
12.8808	12.737	0.317755	0.957302
12.8813	12.7374	0.319751	0.959508
12.8818	12.7379	0.316745	0.956395
12.8822	12.7384	0.315571	0.958441
12.8827	12.7389	0.3175	0.960956
12.8832	12.7393	0.318136	0.960213
12.8837	12.7398	0.316879	0.955179
12.8841	12.7403	0.317401	0.960179
12.8846	12.7407	0.317616	0.968659
12.8851	12.7412	0.317407	0.964159
12.8856	12.7417	0.318819	0.966331
12.886	12.7422	0.320857	0.966961
12.8865	12.7426	0.318285	0.96973
12.887	12.7431	0.319252	0.972889
12.8874	12.7435	0.321101	0.974537
12.8879	12.744	0.319392	0.972833
12.8884	12.7445	0.319695	0.969067
12.8889	12.745	0.320248	0.973079
12.8893	12.7454	0.32044	0.976122
12.8898	12.7459	0.321292	0.974321
12.8903	12.7464	0.319973	0.973643
12.8907	12.7469	0.321544	0.975064
12.8912	12.7474	0.319588	0.974523
12.8917	12.7478	0.321083	0.980261
12.8922	12.7483	0.323942	0.985586
12.8926	12.7488	0.3221	0.984933
12.8931	12.7492	0.321295	0.977963
12.8936	12.7497	0.322412	0.9855
12.8941	12.7501	0.322971	0.991379
12.8945	12.7506	0.321954	0.981731
12.895	12.7511	0.323325	0.986136
12.8955	12.7516	0.32429	0.989973
12.8959	12.752	0.321791	0.980524
12.8964	12.7525	0.320893	0.98196
12.8969	12.753	0.324115	0.988525
12.8974	12.7534	0.322717	0.98498
12.8978	12.7539	0.321853	0.979639
12.8983	12.7544	0.322912	0.987422
12.8988	12.7548	0.324335	0.993406
