# 1304     AichiSR QXAFS
# Start     : 8.9544
# End       : 9.0544
# Dir       : Backward
# Points    : 300
# ScanTime  : 1.01549
# Date      : 13.04.23 22:27
# Ring Cur. : 25.4[mA]
12.7557	12.6118	0.301388	0.229619
12.7562	12.6122	0.299419	0.230872
12.7566	12.6127	0.299236	0.230084
12.7571	12.6132	0.303256	0.232439
12.7576	12.6136	0.300781	0.233085
12.7581	12.6141	0.301314	0.235106
12.7585	12.6146	0.302333	0.236437
12.759	12.615	0.3004	0.232431
12.7595	12.6155	0.302767	0.232838
12.7599	12.616	0.303066	0.236214
12.7604	12.6165	0.302625	0.236631
12.7609	12.617	0.300564	0.235039
12.7614	12.6174	0.302569	0.234165
12.7618	12.6179	0.30684	0.237481
12.7623	12.6184	0.303266	0.236362
12.7628	12.6188	0.303552	0.236968
12.7632	12.6193	0.304673	0.238323
12.7637	12.6198	0.304807	0.235426
12.7642	12.6203	0.303703	0.23332
12.7647	12.6207	0.302588	0.236485
12.7651	12.6212	0.305592	0.237854
12.7656	12.6217	0.30099	0.23546
12.7661	12.6222	0.301677	0.236499
12.7666	12.6226	0.3043	0.236888
12.767	12.6231	0.302852	0.237714
12.7675	12.6236	0.304975	0.239368
12.768	12.624	0.305537	0.241308
12.7684	12.6245	0.303292	0.238877
12.7689	12.625	0.304519	0.239399
12.7694	12.6255	0.305466	0.243937
12.7699	12.626	0.304184	0.244847
12.7703	12.6264	0.302125	0.243229
12.7708	12.6269	0.303437	0.241296
12.7713	12.6274	0.307665	0.243595
12.7717	12.6279	0.303418	0.243698
12.7722	12.6283	0.304654	0.244651
12.7727	12.6288	0.304917	0.245977
12.7732	12.6293	0.303699	0.243522
12.7736	12.6297	0.30476	0.242785
12.7741	12.6302	0.305067	0.245045
12.7746	12.6307	0.305808	0.245951
12.7751	12.6312	0.30251	0.243924
12.7755	12.6316	0.305183	0.243578
12.776	12.6321	0.307072	0.244127
12.7765	12.6326	0.304083	0.244294
12.7769	12.633	0.30721	0.24608
12.7774	12.6335	0.30667	0.24664
12.7779	12.6339	0.305122	0.243033
12.7784	12.6344	0.305945	0.242755
12.7788	12.6349	0.307248	0.245257
12.7793	12.6354	0.305567	0.2454
12.7798	12.6359	0.304243	0.245321
12.7802	12.6363	0.305812	0.245206
12.7807	12.6368	0.307118	0.24575
12.7812	12.6373	0.304591	0.246055
12.7817	12.6378	0.308884	0.250013
12.7821	12.6382	0.307569	0.249932
12.7826	12.6387	0.306686	0.247626
12.7831	12.6392	0.308193	0.249321
12.7836	12.6396	0.308558	0.252706
12.784	12.6401	0.307383	0.251836
12.7845	12.6406	0.305908	0.250106
12.785	12.641	0.307396	0.251655
12.7854	12.6415	0.308803	0.250425
12.7859	12.642	0.30571	0.250918
12.7864	12.6424	0.307128	0.254227
12.7869	12.6429	0.307995	0.252042
12.7873	12.6434	0.304872	0.247501
12.7878	12.6438	0.306895	0.249512
12.7883	12.6443	0.306794	0.249683
12.7887	12.6448	0.306056	0.249215
12.7892	12.6453	0.304166	0.246166
12.7897	12.6457	0.307546	0.24473
12.7902	12.6462	0.308359	0.246975
12.7906	12.6467	0.305415	0.24385
12.7911	12.6472	0.307042	0.244747
12.7916	12.6477	0.308526	0.244108
12.7921	12.6481	0.307736	0.241771
12.7925	12.6486	0.309202	0.239154
12.793	12.6491	0.307954	0.239953
12.7935	12.6495	0.308693	0.238065
12.7939	12.65	0.308055	0.235485
12.7944	12.6505	0.308201	0.231666
12.7949	12.651	0.311288	0.231485
12.7954	12.6514	0.308902	0.231025
12.7958	12.6519	0.309492	0.230053
12.7963	12.6524	0.310704	0.226739
12.7968	12.6528	0.310055	0.224471
12.7972	12.6533	0.310844	0.224419
12.7977	12.6538	0.312569	0.2221
12.7982	12.6543	0.311229	0.222436
12.7987	12.6547	0.311008	0.219304
12.7991	12.6552	0.310098	0.216488
12.7996	12.6557	0.31307	0.216725
12.8001	12.6562	0.309504	0.215558
12.8006	12.6566	0.309607	0.216288
12.801	12.6571	0.312512	0.216029
12.8015	12.6576	0.309651	0.212664
12.802	12.6581	0.310389	0.212793
12.8024	12.6585	0.311743	0.215318
12.8029	12.659	0.31264	0.217715
12.8034	12.6595	0.309876	0.215861
12.8039	12.6599	0.310246	0.216976
12.8043	12.6604	0.315294	0.219174
12.8048	12.6609	0.312279	0.219464
12.8053	12.6614	0.311769	0.222775
12.8057	12.6618	0.31333	0.224534
12.8062	12.6623	0.312537	0.223442
12.8067	12.6628	0.314161	0.224554
12.8072	12.6632	0.31281	0.228908
12.8076	12.6637	0.311706	0.230456
12.8081	12.6642	0.311752	0.230619
12.8086	12.6646	0.311052	0.2317
12.8091	12.6651	0.312584	0.234312
12.8095	12.6656	0.311308	0.236529
12.81	12.6661	0.3127	0.239885
12.8105	12.6665	0.313792	0.241331
12.8109	12.667	0.312564	0.239732
12.8114	12.6675	0.315183	0.244362
12.8119	12.668	0.314908	0.248054
12.8124	12.6684	0.313657	0.249976
12.8128	12.6689	0.311784	0.249346
12.8133	12.6694	0.313144	0.250747
12.8138	12.6698	0.315748	0.2534
12.8142	12.6703	0.313233	0.25602
12.8147	12.6708	0.312915	0.258296
12.8152	12.6712	0.314079	0.260347
12.8157	12.6717	0.313273	0.25853
12.8161	12.6722	0.312515	0.261451
12.8166	12.6726	0.314561	0.26537
12.8171	12.6731	0.314568	0.267687
12.8176	12.6736	0.312742	0.264393
12.818	12.674	0.314595	0.266857
12.8185	12.6745	0.316649	0.269081
12.819	12.675	0.313749	0.269901
12.8194	12.6755	0.312895	0.272626
12.8199	12.676	0.31535	0.271128
12.8204	12.6765	0.314171	0.269392
12.8209	12.6769	0.313292	0.26864
12.8213	12.6774	0.314259	0.273596
12.8218	12.6779	0.314336	0.272766
12.8223	12.6784	0.312407	0.270678
12.8227	12.6788	0.31469	0.270929
12.8232	12.6793	0.316312	0.270281
12.8237	12.6798	0.313909	0.269569
12.8242	12.6802	0.315594	0.270646
12.8246	12.6807	0.317095	0.266871
12.8251	12.6812	0.314241	0.261188
12.8256	12.6817	0.314792	0.260264
12.8261	12.6821	0.315858	0.260278
12.8265	12.6826	0.31263	0.257537
12.827	12.6831	0.312469	0.253156
12.8275	12.6835	0.313729	0.249413
12.8279	12.684	0.314756	0.248922
12.8284	12.6845	0.313183	0.246623
12.8289	12.6849	0.313076	0.244603
12.8294	12.6854	0.313869	0.241992
12.8298	12.6859	0.312646	0.237164
12.8303	12.6864	0.315478	0.235183
12.8308	12.6869	0.315725	0.233177
12.8312	12.6874	0.31563	0.230329
12.8317	12.6878	0.315247	0.226473
12.8322	12.6883	0.31589	0.223769
12.8327	12.6888	0.31536	0.220569
12.8331	12.6892	0.316327	0.219418
12.8336	12.6897	0.316513	0.218875
12.8341	12.6901	0.316631	0.216883
12.8346	12.6906	0.314928	0.217029
12.835	12.6911	0.314307	0.220573
12.8355	12.6916	0.314847	0.225251
12.836	12.692	0.314887	0.229189
12.8364	12.6925	0.315033	0.231186
12.8369	12.693	0.315317	0.235032
12.8374	12.6934	0.315935	0.240477
12.8379	12.6939	0.315624	0.244567
12.8383	12.6944	0.3155	0.250392
12.8388	12.6948	0.318011	0.253095
12.8393	12.6953	0.315731	0.253714
12.8397	12.6958	0.314761	0.254562
12.8402	12.6963	0.316502	0.257498
12.8407	12.6968	0.314068	0.257086
12.8412	12.6972	0.312929	0.254639
12.8416	12.6977	0.314726	0.252719
12.8421	12.6982	0.314893	0.25022
12.8426	12.6986	0.312283	0.247658
12.8431	12.6991	0.312306	0.245631
12.8435	12.6996	0.314392	0.242024
12.844	12.7	0.313313	0.236378
12.8445	12.7005	0.313662	0.233458
12.8449	12.701	0.315466	0.231521
12.8454	12.7015	0.313976	0.229123
12.8459	12.7019	0.315063	0.224141
12.8464	12.7024	0.315321	0.221498
12.8468	12.7029	0.316324	0.221402
12.8473	12.7033	0.313457	0.221575
12.8478	12.7038	0.314235	0.223815
12.8482	12.7043	0.315204	0.2252
12.8487	12.7048	0.316284	0.230156
12.8492	12.7052	0.312494	0.232456
12.8497	12.7057	0.316009	0.242805
12.8501	12.7062	0.315392	0.251804
12.8506	12.7067	0.314647	0.259516
12.8511	12.7072	0.316472	0.271363
12.8516	12.7076	0.315988	0.281943
12.852	12.7081	0.316781	0.294838
12.8525	12.7086	0.315399	0.308246
12.853	12.7091	0.317774	0.321303
12.8534	12.7095	0.317543	0.332926
12.8539	12.71	0.320032	0.350447
12.8544	12.7105	0.317324	0.361551
12.8549	12.7109	0.31527	0.373259
12.8553	12.7114	0.315198	0.381671
12.8558	12.7119	0.316973	0.395857
12.8563	12.7123	0.315672	0.404626
12.8567	12.7128	0.31519	0.415579
12.8572	12.7133	0.315774	0.426009
12.8577	12.7137	0.316183	0.434791
12.8582	12.7142	0.317161	0.442821
12.8586	12.7147	0.315464	0.449686
12.8591	12.7152	0.316257	0.458484
12.8596	12.7157	0.317136	0.468879
12.8601	12.7161	0.315168	0.472745
12.8605	12.7166	0.316435	0.482214
12.861	12.7171	0.316485	0.490204
12.8615	12.7176	0.316637	0.498163
12.8619	12.718	0.315096	0.501589
12.8624	12.7185	0.316125	0.503148
12.8629	12.719	0.314865	0.499658
12.8634	12.7194	0.315519	0.498179
12.8638	12.7199	0.316	0.494766
12.8643	12.7204	0.316326	0.491288
12.8648	12.7208	0.314276	0.486934
12.8652	12.7213	0.318029	0.489967
12.8657	12.7218	0.316642	0.499353
12.8662	12.7222	0.314492	0.510959
12.8667	12.7227	0.315534	0.533215
12.8671	12.7232	0.315769	0.566341
12.8676	12.7236	0.316436	0.606152
12.8681	12.7241	0.312694	0.653216
12.8686	12.7246	0.314003	0.710027
12.869	12.7251	0.312916	0.755276
12.8695	12.7255	0.311281	0.790084
12.87	12.726	0.315441	0.829462
12.8704	12.7265	0.316261	0.859614
12.8709	12.727	0.316316	0.876546
12.8714	12.7274	0.314808	0.889265
12.8719	12.7279	0.317027	0.904164
12.8723	12.7284	0.317554	0.911792
12.8728	12.7289	0.317428	0.920451
12.8733	12.7293	0.319208	0.930037
12.8737	12.7298	0.316491	0.931328
12.8742	12.7303	0.317218	0.934115
12.8747	12.7307	0.32004	0.941895
12.8752	12.7312	0.320362	0.945688
12.8756	12.7317	0.317887	0.942557
12.8761	12.7322	0.315646	0.947532
12.8766	12.7326	0.319895	0.953627
12.8771	12.7331	0.320746	0.952274
12.8775	12.7336	0.317324	0.952503
12.878	12.734	0.319378	0.960621
12.8785	12.7345	0.319957	0.961564
12.8789	12.735	0.318781	0.956723
12.8794	12.7355	0.320869	0.962506
12.8799	12.736	0.322718	0.966046
12.8804	12.7364	0.321056	0.967461
12.8808	12.7369	0.320879	0.968548
12.8813	12.7374	0.322238	0.972176
12.8818	12.7379	0.321122	0.969573
12.8822	12.7384	0.321347	0.969163
12.8827	12.7388	0.322151	0.974818
12.8832	12.7393	0.322078	0.973559
12.8837	12.7397	0.321064	0.968988
12.8841	12.7402	0.322746	0.973016
12.8846	12.7407	0.322483	0.976073
12.8851	12.7412	0.321958	0.974725
12.8856	12.7416	0.322516	0.980833
12.886	12.7421	0.322129	0.98141
12.8865	12.7426	0.325067	0.979
12.887	12.743	0.323939	0.98083
12.8874	12.7435	0.325102	0.988523
12.8879	12.744	0.323203	0.986555
12.8884	12.7444	0.322985	0.980823
12.8889	12.7449	0.325698	0.9848
12.8893	12.7454	0.324476	0.985682
12.8898	12.7459	0.323363	0.985143
12.8903	12.7464	0.324123	0.989533
12.8907	12.7468	0.323766	0.986497
12.8912	12.7473	0.325782	0.983589
12.8917	12.7478	0.325334	0.990169
12.8922	12.7483	0.326975	0.99604
12.8926	12.7487	0.323941	0.992725
12.8931	12.7492	0.324186	0.987819
12.8936	12.7496	0.328627	0.996212
12.8941	12.7501	0.325748	0.994115
12.8945	12.7506	0.326317	0.992842
12.895	12.7511	0.326705	0.997573
12.8955	12.7515	0.326157	0.99479
12.8959	12.752	0.326195	0.990793
12.8964	12.7525	0.324389	0.989317
12.8969	12.7529	0.32712	0.997758
12.8974	12.7534	0.326877	0.996338
12.8978	12.7539	0.324834	0.991214
12.8983	12.7543	0.326787	0.994408
12.8988	12.7548	0.326773	0.997878
