# 1304     AichiSR QXAFS
# Start     : 8.9544
# End       : 9.0544
# Dir       : Backward
# Points    : 300
# ScanTime  : 1.01549
# Date      : 13.04.23 22:22
# Ring Cur. : 25.5[mA]
12.7557	12.6117	0.303864	0.233903
12.7562	12.6122	0.301436	0.231445
12.7566	12.6127	0.30096	0.23146
12.7571	12.6131	0.307548	0.23442
12.7576	12.6136	0.304937	0.234897
12.7581	12.6141	0.305413	0.23631
12.7585	12.6145	0.30589	0.237157
12.759	12.615	0.305664	0.236245
12.7595	12.6155	0.307903	0.238487
12.7599	12.616	0.308201	0.239651
12.7604	12.6164	0.305398	0.239356
12.7609	12.6169	0.304093	0.236745
12.7614	12.6174	0.3056	0.235917
12.7618	12.6179	0.308222	0.238732
12.7623	12.6183	0.303932	0.236759
12.7628	12.6188	0.303962	0.238831
12.7632	12.6193	0.305721	0.23913
12.7637	12.6197	0.30482	0.237054
12.7642	12.6202	0.306602	0.237659
12.7647	12.6207	0.307376	0.2406
12.7651	12.6212	0.306169	0.240595
12.7656	12.6216	0.303286	0.238348
12.7661	12.6221	0.304922	0.238611
12.7666	12.6226	0.307995	0.240302
12.767	12.623	0.306237	0.241645
12.7675	12.6235	0.303732	0.240782
12.768	12.624	0.305496	0.241943
12.7684	12.6245	0.303771	0.240634
12.7689	12.6249	0.304686	0.241668
12.7694	12.6254	0.305669	0.242995
12.7699	12.6259	0.304352	0.244134
12.7703	12.6264	0.305146	0.243764
12.7708	12.6269	0.302883	0.242654
12.7713	12.6273	0.308969	0.246486
12.7717	12.6278	0.306402	0.24543
12.7722	12.6283	0.304907	0.246486
12.7727	12.6288	0.306336	0.246392
12.7732	12.6292	0.304063	0.243863
12.7736	12.6297	0.30745	0.244039
12.7741	12.6301	0.309243	0.245892
12.7746	12.6306	0.305487	0.245491
12.7751	12.6311	0.303878	0.243903
12.7755	12.6316	0.305802	0.243024
12.776	12.6321	0.309492	0.24429
12.7765	12.6325	0.306567	0.245903
12.7769	12.633	0.305979	0.245555
12.7774	12.6334	0.306362	0.244946
12.7779	12.6339	0.306391	0.243788
12.7784	12.6344	0.310295	0.248016
12.7788	12.6349	0.311308	0.249257
12.7793	12.6353	0.306171	0.247107
12.7798	12.6358	0.304721	0.245437
12.7802	12.6363	0.308162	0.246114
12.7807	12.6368	0.308372	0.247613
12.7812	12.6372	0.307669	0.248019
12.7817	12.6377	0.30763	0.251018
12.7821	12.6382	0.305558	0.247898
12.7826	12.6387	0.306348	0.24791
12.7831	12.6391	0.308355	0.249595
12.7836	12.6396	0.309519	0.251634
12.784	12.64	0.306895	0.252062
12.7845	12.6405	0.305376	0.250458
12.785	12.641	0.30787	0.250756
12.7854	12.6415	0.309252	0.251161
12.7859	12.6419	0.308388	0.253277
12.7864	12.6424	0.308435	0.252885
12.7869	12.6428	0.306741	0.251274
12.7873	12.6433	0.307321	0.248709
12.7878	12.6438	0.309788	0.248591
12.7883	12.6442	0.309685	0.252851
12.7887	12.6447	0.306724	0.250408
12.7892	12.6452	0.305218	0.246229
12.7897	12.6457	0.306613	0.245881
12.7902	12.6462	0.309286	0.247192
12.7906	12.6467	0.308593	0.24565
12.7911	12.6471	0.308484	0.24657
12.7916	12.6476	0.30972	0.244115
12.7921	12.6481	0.307797	0.242592
12.7925	12.6486	0.311702	0.242073
12.793	12.649	0.313372	0.242189
12.7935	12.6495	0.311357	0.241138
12.7939	12.65	0.30948	0.236307
12.7944	12.6504	0.311752	0.234339
12.7949	12.6509	0.3139	0.236125
12.7954	12.6514	0.314719	0.234295
12.7958	12.6519	0.312608	0.232622
12.7963	12.6523	0.31372	0.229047
12.7968	12.6528	0.313511	0.227772
12.7972	12.6533	0.313643	0.225713
12.7977	12.6537	0.314541	0.226905
12.7982	12.6542	0.313027	0.223183
12.7987	12.6547	0.312442	0.220654
12.7991	12.6552	0.313998	0.218551
12.7996	12.6556	0.317155	0.219308
12.8001	12.6561	0.314972	0.219823
12.8006	12.6566	0.315282	0.218972
12.801	12.6571	0.315861	0.21762
12.8015	12.6576	0.314195	0.216401
12.802	12.658	0.316204	0.217388
12.8024	12.6585	0.3175	0.219124
12.8029	12.659	0.315625	0.220606
12.8034	12.6594	0.31345	0.217615
12.8039	12.6599	0.314612	0.218884
12.8043	12.6604	0.316746	0.221878
12.8048	12.6608	0.31561	0.224615
12.8053	12.6613	0.316665	0.225531
12.8057	12.6618	0.31727	0.225086
12.8062	12.6623	0.317476	0.226475
12.8067	12.6627	0.318476	0.228612
12.8072	12.6632	0.319408	0.233129
12.8076	12.6636	0.319178	0.236603
12.8081	12.6641	0.317642	0.234364
12.8086	12.6646	0.318673	0.235473
12.8091	12.6651	0.319089	0.238554
12.8095	12.6655	0.319133	0.241777
12.81	12.666	0.319357	0.244133
12.8105	12.6665	0.316992	0.244245
12.8109	12.667	0.316342	0.243152
12.8114	12.6675	0.317743	0.247712
12.8119	12.6679	0.321633	0.25318
12.8124	12.6684	0.318276	0.252694
12.8128	12.6689	0.315511	0.251368
12.8133	12.6693	0.321802	0.255851
12.8138	12.6698	0.321706	0.259112
12.8142	12.6702	0.320897	0.262052
12.8147	12.6707	0.320913	0.264721
12.8152	12.6712	0.322616	0.266719
12.8157	12.6717	0.319463	0.264783
12.8161	12.6721	0.320613	0.26757
12.8166	12.6726	0.323114	0.272671
12.8171	12.6731	0.319588	0.27264
12.8176	12.6735	0.31868	0.2715
12.818	12.674	0.319247	0.27143
12.8185	12.6745	0.322217	0.274701
12.819	12.675	0.319695	0.275671
12.8194	12.6754	0.320483	0.277442
12.8199	12.6759	0.321874	0.276611
12.8204	12.6764	0.321613	0.275624
12.8209	12.6769	0.321818	0.276394
12.8213	12.6774	0.324098	0.281594
12.8218	12.6778	0.321968	0.280731
12.8223	12.6783	0.320825	0.278382
12.8227	12.6788	0.32313	0.27749
12.8232	12.6793	0.324572	0.276802
12.8237	12.6797	0.322252	0.275952
12.8242	12.6802	0.320885	0.275317
12.8246	12.6807	0.322071	0.272823
12.8251	12.6811	0.321186	0.268424
12.8256	12.6816	0.320849	0.266685
12.8261	12.6821	0.323015	0.266744
12.8265	12.6826	0.322835	0.265014
12.827	12.683	0.321628	0.259928
12.8275	12.6835	0.321672	0.25622
12.8279	12.684	0.322384	0.255509
12.8284	12.6844	0.323303	0.255367
12.8289	12.6849	0.324189	0.252971
12.8294	12.6854	0.32268	0.24818
12.8298	12.6859	0.322912	0.244777
12.8303	12.6864	0.324472	0.241058
12.8308	12.6868	0.324423	0.240376
12.8312	12.6873	0.32346	0.236118
12.8317	12.6878	0.3237	0.23144
12.8322	12.6883	0.324696	0.227103
12.8327	12.6887	0.323648	0.225918
12.8331	12.6892	0.325723	0.225814
12.8336	12.6896	0.32514	0.224722
12.8341	12.6901	0.324806	0.224027
12.8346	12.6906	0.324914	0.224604
12.835	12.6911	0.325181	0.228067
12.8355	12.6915	0.326187	0.232553
12.836	12.692	0.324894	0.23608
12.8364	12.6925	0.325029	0.238454
12.8369	12.6929	0.326681	0.242386
12.8374	12.6934	0.325382	0.246971
12.8379	12.6939	0.325017	0.25222
12.8383	12.6943	0.3243	0.256322
12.8388	12.6948	0.325552	0.258217
12.8393	12.6953	0.324786	0.259023
12.8397	12.6958	0.324193	0.26242
12.8402	12.6962	0.328225	0.26568
12.8407	12.6967	0.32583	0.265623
12.8412	12.6972	0.323081	0.261154
12.8416	12.6977	0.326423	0.261333
12.8421	12.6981	0.327072	0.259513
12.8426	12.6986	0.324227	0.257603
12.8431	12.6991	0.325789	0.25465
12.8435	12.6995	0.324874	0.249472
12.844	12.7	0.324345	0.244813
12.8445	12.7005	0.323167	0.241455
12.8449	12.7009	0.324033	0.240117
12.8454	12.7014	0.324471	0.236739
12.8459	12.7019	0.322655	0.230773
12.8464	12.7024	0.326013	0.229933
12.8468	12.7028	0.32482	0.229834
12.8473	12.7033	0.323921	0.229578
12.8478	12.7038	0.325439	0.231649
12.8482	12.7042	0.325858	0.232753
12.8487	12.7047	0.327028	0.23729
12.8492	12.7052	0.325551	0.243206
12.8497	12.7057	0.326268	0.25299
12.8501	12.7062	0.326565	0.261778
12.8506	12.7066	0.325693	0.267184
12.8511	12.7071	0.326809	0.277255
12.8516	12.7076	0.328034	0.291804
12.852	12.7081	0.326687	0.30593
12.8525	12.7085	0.325962	0.316929
12.853	12.709	0.325538	0.328557
12.8534	12.7095	0.327103	0.341571
12.8539	12.7099	0.325164	0.356784
12.8544	12.7104	0.327274	0.373686
12.8549	12.7109	0.328606	0.388557
12.8553	12.7114	0.326099	0.39554
12.8558	12.7118	0.327306	0.407145
12.8563	12.7123	0.3292	0.422497
12.8567	12.7128	0.326271	0.431894
12.8572	12.7132	0.327176	0.441583
12.8577	12.7137	0.328089	0.447731
12.8582	12.7142	0.327218	0.455807
12.8586	12.7147	0.326372	0.460767
12.8591	12.7151	0.328278	0.476631
12.8596	12.7156	0.326699	0.483421
12.8601	12.7161	0.326487	0.488584
12.8605	12.7166	0.327897	0.49833
12.861	12.717	0.325889	0.507307
12.8615	12.7175	0.326785	0.516068
12.8619	12.718	0.32717	0.523153
12.8624	12.7185	0.32678	0.519624
12.8629	12.7189	0.326043	0.515805
12.8634	12.7194	0.32591	0.514572
12.8638	12.7198	0.326575	0.513501
12.8643	12.7203	0.326581	0.507987
12.8648	12.7208	0.324125	0.503431
12.8652	12.7213	0.325785	0.506377
12.8657	12.7217	0.32592	0.515476
12.8662	12.7222	0.325679	0.528344
12.8667	12.7227	0.325719	0.551308
12.8671	12.7231	0.324615	0.581308
12.8676	12.7236	0.324555	0.618337
12.8681	12.7241	0.322273	0.670943
12.8686	12.7245	0.323083	0.727489
12.869	12.725	0.322203	0.774079
12.8695	12.7255	0.320486	0.813029
12.87	12.726	0.323852	0.85188
12.8704	12.7264	0.323248	0.879232
12.8709	12.7269	0.324209	0.899824
12.8714	12.7274	0.325507	0.919573
12.8719	12.7279	0.326181	0.929583
12.8723	12.7283	0.325171	0.930116
12.8728	12.7288	0.324734	0.940037
12.8733	12.7293	0.325886	0.95188
12.8737	12.7297	0.326776	0.958197
12.8742	12.7302	0.323763	0.955362
12.8747	12.7307	0.326724	0.961257
12.8752	12.7312	0.326377	0.967319
12.8756	12.7316	0.325475	0.967892
12.8761	12.7321	0.327488	0.975408
12.8766	12.7326	0.327583	0.976003
12.8771	12.733	0.327604	0.972159
12.8775	12.7335	0.325276	0.972902
12.878	12.734	0.328556	0.986602
12.8785	12.7345	0.326345	0.984877
12.8789	12.735	0.325519	0.977838
12.8794	12.7354	0.327667	0.982073
12.8799	12.7359	0.327723	0.984995
12.8804	12.7364	0.326829	0.988163
12.8808	12.7369	0.326932	0.99018
12.8813	12.7374	0.327398	0.987312
12.8818	12.7378	0.328663	0.982481
12.8822	12.7383	0.324927	0.986977
12.8827	12.7388	0.328426	0.995598
12.8832	12.7392	0.329068	0.995674
12.8837	12.7397	0.327805	0.991681
12.8841	12.7402	0.329038	0.991715
12.8846	12.7406	0.33024	0.997487
12.8851	12.7411	0.327766	0.999542
12.8856	12.7416	0.32883	1.00099
12.886	12.7421	0.329054	0.999282
12.8865	12.7425	0.329552	0.995412
12.887	12.743	0.328589	0.996359
12.8874	12.7435	0.329087	1.00039
12.8879	12.7439	0.330746	1.00029
12.8884	12.7444	0.327246	0.996866
12.8889	12.7449	0.329311	0.998196
12.8893	12.7454	0.329135	0.999534
12.8898	12.7458	0.328533	1.00361
12.8903	12.7463	0.330531	1.00809
12.8907	12.7468	0.329362	1.00698
12.8912	12.7473	0.330626	1.00209
12.8917	12.7477	0.329263	1.00708
12.8922	12.7482	0.331108	1.01025
12.8926	12.7487	0.329891	1.0057
12.8931	12.7491	0.330032	1.00606
12.8936	12.7496	0.330083	1.00611
12.8941	12.7501	0.329901	1.00375
12.8945	12.7505	0.328537	1.00478
12.895	12.751	0.329577	1.00754
12.8955	12.7515	0.331285	1.01234
12.8959	12.752	0.330182	1.00572
12.8964	12.7524	0.329639	1.0053
12.8969	12.7529	0.330761	1.01146
12.8974	12.7533	0.330987	1.00969
12.8978	12.7538	0.33021	1.00484
12.8983	12.7543	0.33013	1.00354
12.8988	12.7548	0.33091	1.00534
