# 1304     AichiSR QXAFS
# Start     : 8.9544
# End       : 9.0544
# Dir       : Forward
# Points    : 300
# ScanTime  : 1.01549
# Date      : 13.04.23 22:26
# Ring Cur. : 25.4[mA]
12.7557	12.7557	0.400179	1.22585
12.7562	12.7553	0.399734	1.22072
12.7566	12.7548	0.399712	1.21684
12.7571	12.7543	0.40158	1.21666
12.7576	12.7538	0.400404	1.22059
12.7581	12.7534	0.398826	1.22363
12.7585	12.7529	0.400032	1.22289
12.759	12.7524	0.398145	1.21589
12.7595	12.752	0.401064	1.21569
12.7599	12.7515	0.400901	1.21879
12.7604	12.751	0.400371	1.22176
12.7609	12.7506	0.397124	1.21811
12.7614	12.7501	0.398846	1.21527
12.7618	12.7496	0.400402	1.21735
12.7623	12.7492	0.400669	1.21931
12.7628	12.7487	0.400774	1.21893
12.7632	12.7482	0.398496	1.21612
12.7637	12.7478	0.398625	1.21485
12.7642	12.7473	0.400723	1.21295
12.7647	12.7468	0.400097	1.21351
12.7651	12.7463	0.399664	1.21613
12.7656	12.7459	0.398534	1.21682
12.7661	12.7454	0.398869	1.21049
12.7666	12.7449	0.400523	1.21119
12.767	12.7444	0.399958	1.21139
12.7675	12.744	0.398053	1.2153
12.768	12.7435	0.398213	1.21006
12.7684	12.743	0.398576	1.20883
12.7689	12.7426	0.3976	1.20728
12.7694	12.7421	0.400161	1.20918
12.7699	12.7416	0.398343	1.20968
12.7703	12.7411	0.397599	1.20856
12.7708	12.7407	0.397218	1.20387
12.7713	12.7402	0.400355	1.203
12.7717	12.7397	0.39715	1.20677
12.7722	12.7393	0.397631	1.20703
12.7727	12.7388	0.398063	1.20367
12.7732	12.7383	0.397794	1.19843
12.7736	12.7379	0.398808	1.2011
12.7741	12.7374	0.398387	1.19962
12.7746	12.7369	0.397397	1.19896
12.7751	12.7364	0.396851	1.19707
12.7755	12.7359	0.396739	1.19301
12.776	12.7355	0.396875	1.19439
12.7765	12.735	0.397043	1.19389
12.7769	12.7345	0.396208	1.19329
12.7774	12.734	0.396008	1.19065
12.7779	12.7335	0.396722	1.185
12.7784	12.7331	0.397605	1.18286
12.7788	12.7326	0.396664	1.18439
12.7793	12.7321	0.395728	1.18383
12.7798	12.7317	0.395543	1.17692
12.7802	12.7312	0.395504	1.17209
12.7807	12.7307	0.396136	1.17244
12.7812	12.7302	0.394668	1.1679
12.7817	12.7298	0.393963	1.16453
12.7821	12.7293	0.395271	1.15956
12.7826	12.7288	0.395224	1.15005
12.7831	12.7284	0.393488	1.14082
12.7836	12.7279	0.394063	1.14074
12.784	12.7274	0.393814	1.13243
12.7845	12.7269	0.392365	1.11431
12.785	12.7265	0.39098	1.09703
12.7854	12.726	0.390872	1.07496
12.7859	12.7255	0.391349	1.04899
12.7864	12.725	0.386603	1.01204
12.7869	12.7246	0.387211	0.964298
12.7873	12.7241	0.387967	0.905889
12.7878	12.7236	0.390771	0.847841
12.7883	12.7232	0.391345	0.789332
12.7887	12.7227	0.39211	0.735439
12.7892	12.7222	0.393939	0.68809
12.7897	12.7218	0.392077	0.650277
12.7902	12.7213	0.39325	0.625938
12.7906	12.7208	0.393483	0.615804
12.7911	12.7203	0.391221	0.608936
12.7916	12.7199	0.391644	0.608194
12.7921	12.7194	0.392494	0.610529
12.7925	12.719	0.393396	0.614825
12.793	12.7185	0.392328	0.621648
12.7935	12.718	0.391864	0.623705
12.7939	12.7176	0.391763	0.623644
12.7944	12.7171	0.390532	0.616654
12.7949	12.7166	0.392452	0.612177
12.7954	12.7161	0.392868	0.606331
12.7958	12.7156	0.391688	0.594615
12.7963	12.7152	0.390886	0.582223
12.7968	12.7147	0.391393	0.571591
12.7972	12.7142	0.395883	0.563866
12.7977	12.7137	0.395179	0.558135
12.7982	12.7133	0.390057	0.543933
12.7987	12.7128	0.39146	0.532002
12.7991	12.7123	0.390726	0.518375
12.7996	12.7119	0.391319	0.50711
12.8001	12.7114	0.391673	0.495089
12.8006	12.7109	0.390106	0.482828
12.801	12.7104	0.389085	0.46795
12.8015	12.71	0.39079	0.44925
12.802	12.7095	0.392116	0.435183
12.8024	12.709	0.392249	0.419853
12.8029	12.7086	0.391379	0.405673
12.8034	12.7081	0.389932	0.387967
12.8039	12.7076	0.389723	0.370727
12.8043	12.7071	0.392548	0.356292
12.8048	12.7067	0.390748	0.342179
12.8053	12.7062	0.391678	0.328957
12.8057	12.7057	0.390663	0.317808
12.8062	12.7052	0.38991	0.30326
12.8067	12.7047	0.392098	0.295262
12.8072	12.7043	0.391191	0.290748
12.8076	12.7038	0.389985	0.283151
12.8081	12.7033	0.390363	0.277691
12.8086	12.7028	0.392498	0.274833
12.8091	12.7024	0.391312	0.274859
12.8095	12.7019	0.392709	0.276705
12.81	12.7014	0.390115	0.278659
12.8105	12.701	0.391489	0.281026
12.8109	12.7005	0.392291	0.284481
12.8114	12.7	0.393089	0.290353
12.8119	12.6995	0.39247	0.294755
12.8124	12.6991	0.393021	0.29864
12.8128	12.6986	0.392124	0.301627
12.8133	12.6982	0.391906	0.30596
12.8138	12.6977	0.392955	0.310862
12.8142	12.6972	0.393704	0.315457
12.8147	12.6967	0.391957	0.316674
12.8152	12.6963	0.391848	0.317424
12.8157	12.6958	0.392511	0.318572
12.8161	12.6953	0.393306	0.317474
12.8166	12.6948	0.393137	0.317854
12.8171	12.6944	0.390265	0.316303
12.8176	12.6939	0.392887	0.311201
12.818	12.6934	0.39304	0.30654
12.8185	12.6929	0.393134	0.302677
12.819	12.6925	0.394319	0.296603
12.8194	12.692	0.392479	0.291689
12.8199	12.6916	0.39232	0.284366
12.8204	12.6911	0.394804	0.279456
12.8209	12.6906	0.393575	0.276181
12.8213	12.6901	0.393348	0.273488
12.8218	12.6897	0.392958	0.271312
12.8223	12.6892	0.39196	0.269326
12.8227	12.6888	0.393733	0.269371
12.8232	12.6883	0.392582	0.273138
12.8237	12.6878	0.394375	0.275776
12.8242	12.6873	0.39185	0.279092
12.8246	12.6869	0.391531	0.280538
12.8251	12.6864	0.392358	0.285476
12.8256	12.6859	0.391506	0.28951
12.8261	12.6854	0.392712	0.294561
12.8265	12.6849	0.392223	0.299575
12.827	12.6845	0.390503	0.301567
12.8275	12.684	0.390735	0.305109
12.8279	12.6835	0.392355	0.308179
12.8284	12.683	0.39219	0.312751
12.8289	12.6826	0.39115	0.314827
12.8294	12.6821	0.391723	0.317148
12.8298	12.6816	0.392941	0.31926
12.8303	12.6812	0.393373	0.323135
12.8308	12.6807	0.394217	0.328032
12.8312	12.6802	0.393027	0.331361
12.8317	12.6797	0.392027	0.330943
12.8322	12.6793	0.395089	0.333717
12.8327	12.6788	0.395094	0.336082
12.8331	12.6783	0.394217	0.340811
12.8336	12.6779	0.393688	0.338846
12.8341	12.6774	0.393632	0.339451
12.8346	12.6769	0.394972	0.339258
12.835	12.6764	0.394777	0.338117
12.8355	12.676	0.394832	0.341223
12.836	12.6755	0.394124	0.339356
12.8364	12.675	0.393204	0.336428
12.8369	12.6745	0.394171	0.335663
12.8374	12.674	0.39439	0.337005
12.8379	12.6736	0.39482	0.335876
12.8383	12.6731	0.394748	0.335153
12.8388	12.6726	0.39485	0.332101
12.8393	12.6722	0.394813	0.329757
12.8397	12.6717	0.395511	0.329997
12.8402	12.6712	0.394686	0.329607
12.8407	12.6708	0.395206	0.327889
12.8412	12.6703	0.393855	0.323231
12.8416	12.6698	0.395182	0.320534
12.8421	12.6693	0.395033	0.32062
12.8426	12.6689	0.395466	0.31753
12.8431	12.6684	0.393401	0.315931
12.8435	12.668	0.394598	0.311672
12.844	12.6675	0.39591	0.309369
12.8445	12.667	0.394414	0.307559
12.8449	12.6665	0.395465	0.306655
12.8454	12.6661	0.394872	0.302915
12.8459	12.6656	0.39384	0.300092
12.8464	12.6651	0.39558	0.296352
12.8468	12.6646	0.394991	0.296384
12.8473	12.6641	0.395649	0.294405
12.8478	12.6637	0.393486	0.291169
12.8482	12.6632	0.395407	0.289071
12.8487	12.6627	0.39603	0.286812
12.8492	12.6623	0.394347	0.285353
12.8497	12.6618	0.394274	0.284924
12.8501	12.6614	0.392978	0.281973
12.8506	12.6609	0.394186	0.277525
12.8511	12.6604	0.393779	0.276399
12.8516	12.6599	0.39325	0.275587
12.852	12.6595	0.393216	0.274751
12.8525	12.659	0.392567	0.272635
12.853	12.6585	0.393461	0.270254
12.8534	12.6581	0.394056	0.269763
12.8539	12.6576	0.392756	0.270342
12.8544	12.6571	0.393182	0.270443
12.8549	12.6566	0.393471	0.271147
12.8553	12.6562	0.391721	0.268301
12.8558	12.6557	0.393229	0.26969
12.8563	12.6552	0.393129	0.272356
12.8567	12.6547	0.393822	0.274769
12.8572	12.6542	0.393183	0.275285
12.8577	12.6538	0.391852	0.275951
12.8582	12.6533	0.395525	0.278938
12.8586	12.6528	0.394448	0.281205
12.8591	12.6524	0.393578	0.284266
12.8596	12.6519	0.393645	0.286962
12.8601	12.6514	0.39278	0.28747
12.8605	12.651	0.393627	0.289284
12.861	12.6505	0.394628	0.294532
12.8615	12.65	0.392887	0.296966
12.8619	12.6495	0.3934	0.298805
12.8624	12.6491	0.390156	0.299329
12.8629	12.6486	0.393202	0.301282
12.8634	12.6481	0.393207	0.303383
12.8638	12.6476	0.39306	0.306161
12.8643	12.6472	0.392008	0.308148
12.8648	12.6467	0.389602	0.3061
12.8652	12.6462	0.38947	0.309915
12.8657	12.6457	0.388966	0.310381
12.8662	12.6452	0.388335	0.312507
12.8667	12.6448	0.387946	0.313287
12.8671	12.6443	0.388181	0.312856
12.8676	12.6438	0.391162	0.31544
12.8681	12.6433	0.390487	0.316679
12.8686	12.6429	0.391398	0.318427
12.869	12.6424	0.390906	0.317962
12.8695	12.642	0.39148	0.317161
12.87	12.6415	0.391821	0.318738
12.8704	12.641	0.392311	0.320612
12.8709	12.6405	0.390031	0.320415
12.8714	12.6401	0.391001	0.317947
12.8719	12.6396	0.391005	0.316942
12.8723	12.6392	0.391854	0.316765
12.8728	12.6387	0.39163	0.318256
12.8733	12.6382	0.390015	0.317732
12.8737	12.6378	0.392283	0.316461
12.8742	12.6373	0.390244	0.313138
12.8747	12.6368	0.391442	0.315429
12.8752	12.6363	0.390205	0.314274
12.8756	12.6359	0.389009	0.314601
12.8761	12.6354	0.389662	0.313079
12.8766	12.6349	0.389057	0.309724
12.8771	12.6344	0.391864	0.311443
12.8775	12.6339	0.390662	0.310038
12.878	12.6335	0.390261	0.311982
12.8785	12.633	0.389332	0.310597
12.8789	12.6325	0.390087	0.30794
12.8794	12.6321	0.390926	0.309518
12.8799	12.6316	0.389911	0.310691
12.8804	12.6311	0.388301	0.311159
12.8808	12.6307	0.389651	0.311739
12.8813	12.6302	0.388437	0.309573
12.8818	12.6297	0.392077	0.310147
12.8822	12.6293	0.389135	0.312761
12.8827	12.6288	0.388552	0.312717
12.8832	12.6283	0.3887	0.311322
12.8837	12.6278	0.386788	0.311826
12.8841	12.6274	0.389099	0.310079
12.8846	12.6269	0.388898	0.311448
12.8851	12.6264	0.387627	0.311685
12.8856	12.6259	0.387909	0.308908
12.886	12.6254	0.388381	0.307552
12.8865	12.625	0.388506	0.307156
12.887	12.6245	0.387942	0.308368
12.8874	12.624	0.387655	0.30825
12.8879	12.6235	0.388785	0.30667
12.8884	12.6231	0.386616	0.303825
12.8889	12.6226	0.388984	0.303686
12.8893	12.6221	0.389742	0.303601
12.8898	12.6217	0.386788	0.304407
12.8903	12.6212	0.38683	0.301879
12.8907	12.6207	0.387351	0.301442
12.8912	12.6202	0.386774	0.299865
12.8917	12.6198	0.387795	0.301691
12.8922	12.6193	0.386768	0.302859
12.8926	12.6188	0.387291	0.30141
12.8931	12.6184	0.386991	0.299452
12.8936	12.6179	0.386609	0.300751
12.8941	12.6174	0.387125	0.302237
12.8945	12.6169	0.385772	0.302069
12.895	12.6165	0.385996	0.300346
12.8955	12.616	0.386475	0.299892
12.8959	12.6155	0.38764	0.300078
12.8964	12.615	0.386315	0.300184
12.8969	12.6146	0.385297	0.299037
12.8974	12.6141	0.386485	0.298811
12.8978	12.6136	0.386921	0.296775
12.8983	12.6131	0.386479	0.296307
12.8988	12.6127	0.387425	0.297346
