# 1304     AichiSR QXAFS
# Start     : 8.9544
# End       : 9.0544
# Dir       : Forward
# Points    : 300
# ScanTime  : 1.01549
# Date      : 13.04.23 22:29
# Ring Cur. : 25.7[mA]
12.7557	12.7558	0.40014	1.21991
12.7562	12.7553	0.399804	1.22066
12.7566	12.7548	0.400007	1.22175
12.7571	12.7543	0.399957	1.22076
12.7576	12.7539	0.403141	1.22033
12.7581	12.7534	0.401238	1.21876
12.7585	12.7529	0.40126	1.22328
12.759	12.7525	0.399706	1.2199
12.7595	12.752	0.399507	1.21773
12.7599	12.7515	0.402384	1.22106
12.7604	12.7511	0.400367	1.2205
12.7609	12.7506	0.400964	1.2224
12.7614	12.7501	0.400703	1.22172
12.7618	12.7496	0.399939	1.22174
12.7623	12.7492	0.401052	1.22092
12.7628	12.7487	0.401551	1.22239
12.7632	12.7483	0.401097	1.2244
12.7637	12.7478	0.400748	1.22281
12.7642	12.7473	0.400899	1.2186
12.7647	12.7468	0.401882	1.2198
12.7651	12.7464	0.402305	1.22121
12.7656	12.7459	0.402726	1.22138
12.7661	12.7454	0.402309	1.22391
12.7666	12.7449	0.400185	1.21788
12.767	12.7445	0.402286	1.21649
12.7675	12.744	0.402281	1.2181
12.768	12.7435	0.401961	1.21883
12.7684	12.743	0.401997	1.22057
12.7689	12.7426	0.399981	1.21618
12.7694	12.7421	0.400848	1.21677
12.7699	12.7417	0.403867	1.21998
12.7703	12.7412	0.402896	1.21952
12.7708	12.7407	0.402161	1.21655
12.7713	12.7402	0.40058	1.21591
12.7717	12.7398	0.401764	1.21324
12.7722	12.7393	0.401685	1.21457
12.7727	12.7388	0.401333	1.2158
12.7732	12.7384	0.402278	1.21433
12.7736	12.7379	0.400903	1.21404
12.7741	12.7374	0.402353	1.21317
12.7746	12.7369	0.402717	1.21458
12.7751	12.7365	0.401361	1.21323
12.7755	12.736	0.401167	1.21245
12.776	12.7355	0.401217	1.20841
12.7765	12.735	0.401925	1.20391
12.7769	12.7345	0.402073	1.20677
12.7774	12.734	0.401517	1.20726
12.7779	12.7336	0.401146	1.20303
12.7784	12.7331	0.400544	1.19729
12.7788	12.7326	0.403599	1.19912
12.7793	12.7322	0.402424	1.19957
12.7798	12.7317	0.400163	1.19392
12.7802	12.7312	0.399877	1.19194
12.7807	12.7307	0.400165	1.18639
12.7812	12.7303	0.400128	1.18278
12.7817	12.7298	0.400313	1.18219
12.7821	12.7293	0.400277	1.17989
12.7826	12.7289	0.400726	1.16885
12.7831	12.7284	0.399622	1.15977
12.7836	12.7279	0.402051	1.15616
12.784	12.7275	0.399955	1.14765
12.7845	12.727	0.397648	1.13442
12.785	12.7265	0.397837	1.11725
12.7854	12.726	0.396749	1.09425
12.7859	12.7256	0.397625	1.06339
12.7864	12.7251	0.396539	1.02613
12.7869	12.7246	0.394936	0.981571
12.7873	12.7241	0.394855	0.917487
12.7878	12.7237	0.396157	0.859508
12.7883	12.7232	0.399216	0.802354
12.7887	12.7227	0.399422	0.745311
12.7892	12.7223	0.399121	0.695551
12.7897	12.7218	0.400546	0.66155
12.7902	12.7213	0.400258	0.638459
12.7906	12.7209	0.400517	0.625329
12.7911	12.7204	0.400686	0.620324
12.7916	12.7199	0.399522	0.621769
12.7921	12.7194	0.399896	0.621534
12.7925	12.719	0.400301	0.628227
12.793	12.7185	0.400568	0.630907
12.7935	12.7181	0.399333	0.637929
12.7939	12.7176	0.398693	0.636618
12.7944	12.7171	0.399697	0.63302
12.7949	12.7166	0.399222	0.624847
12.7954	12.7162	0.40089	0.616087
12.7958	12.7157	0.400557	0.606417
12.7963	12.7152	0.400462	0.594775
12.7968	12.7147	0.39946	0.581707
12.7972	12.7142	0.399482	0.572044
12.7977	12.7138	0.400496	0.561968
12.7982	12.7133	0.399092	0.553636
12.7987	12.7128	0.398961	0.542349
12.7991	12.7124	0.40108	0.530957
12.7996	12.7119	0.401298	0.518435
12.8001	12.7114	0.399525	0.505035
12.8006	12.7109	0.400412	0.493406
12.801	12.7105	0.398475	0.478459
12.8015	12.71	0.398922	0.46054
12.802	12.7095	0.400329	0.443428
12.8024	12.7091	0.400458	0.428636
12.8029	12.7086	0.399168	0.411118
12.8034	12.7081	0.399687	0.395717
12.8039	12.7077	0.399201	0.379337
12.8043	12.7072	0.399407	0.361986
12.8048	12.7067	0.400184	0.348705
12.8053	12.7062	0.40118	0.33644
12.8057	12.7057	0.398889	0.322859
12.8062	12.7052	0.40004	0.310944
12.8067	12.7048	0.398728	0.299651
12.8072	12.7043	0.400317	0.293356
12.8076	12.7038	0.398964	0.289015
12.8081	12.7033	0.397296	0.284402
12.8086	12.7029	0.397905	0.280279
12.8091	12.7024	0.399496	0.279781
12.8095	12.7019	0.400955	0.282066
12.81	12.7015	0.3995	0.285201
12.8105	12.701	0.398462	0.287967
12.8109	12.7005	0.399034	0.29011
12.8114	12.7	0.399237	0.293987
12.8119	12.6996	0.398976	0.298808
12.8124	12.6991	0.399149	0.304064
12.8128	12.6987	0.397288	0.308972
12.8133	12.6982	0.397613	0.311978
12.8138	12.6977	0.399421	0.315652
12.8142	12.6973	0.398861	0.319652
12.8147	12.6968	0.398399	0.322525
12.8152	12.6963	0.398955	0.323881
12.8157	12.6958	0.398378	0.322523
12.8161	12.6953	0.397943	0.320627
12.8166	12.6949	0.399444	0.321018
12.8171	12.6944	0.399246	0.319976
12.8176	12.6939	0.396047	0.315916
12.818	12.6934	0.395402	0.309231
12.8185	12.693	0.397373	0.306456
12.819	12.6925	0.397551	0.300327
12.8194	12.6921	0.396606	0.295503
12.8199	12.6916	0.395515	0.288686
12.8204	12.6911	0.397234	0.282547
12.8209	12.6906	0.398418	0.277065
12.8213	12.6902	0.39729	0.275058
12.8218	12.6897	0.397362	0.274876
12.8223	12.6892	0.395869	0.272326
12.8227	12.6888	0.395969	0.272893
12.8232	12.6883	0.396947	0.273688
12.8237	12.6879	0.396382	0.278552
12.8242	12.6874	0.396686	0.282198
12.8246	12.6869	0.396473	0.287075
12.8251	12.6864	0.394041	0.288494
12.8256	12.6859	0.394526	0.290746
12.8261	12.6855	0.396161	0.296696
12.8265	12.685	0.395033	0.301665
12.827	12.6845	0.393014	0.305008
12.8275	12.684	0.393853	0.307181
12.8279	12.6835	0.392936	0.308972
12.8284	12.6831	0.393492	0.313819
12.8289	12.6826	0.395722	0.317234
12.8294	12.6821	0.393524	0.319777
12.8298	12.6817	0.394302	0.322209
12.8303	12.6812	0.396136	0.324265
12.8308	12.6807	0.394338	0.328575
12.8312	12.6802	0.396195	0.33319
12.8317	12.6798	0.394954	0.334748
12.8322	12.6793	0.394668	0.336058
12.8327	12.6788	0.396331	0.336874
12.8331	12.6784	0.394923	0.339404
12.8336	12.6779	0.396675	0.342364
12.8341	12.6774	0.395346	0.342763
12.8346	12.677	0.395665	0.34175
12.835	12.6765	0.394906	0.34001
12.8355	12.676	0.396083	0.339999
12.836	12.6755	0.396776	0.342067
12.8364	12.675	0.393773	0.339631
12.8369	12.6745	0.395131	0.338117
12.8374	12.6741	0.395923	0.336548
12.8379	12.6736	0.395785	0.336535
12.8383	12.6731	0.396417	0.337044
12.8388	12.6727	0.39342	0.335414
12.8393	12.6722	0.39458	0.331734
12.8397	12.6717	0.393805	0.329498
12.8402	12.6713	0.395516	0.328287
12.8407	12.6708	0.395489	0.328783
12.8412	12.6703	0.393282	0.3258
12.8416	12.6698	0.39416	0.320008
12.8421	12.6694	0.396104	0.319597
12.8426	12.6689	0.393683	0.317666
12.8431	12.6685	0.394919	0.316031
12.8435	12.668	0.39469	0.312952
12.844	12.6675	0.394233	0.309717
12.8445	12.667	0.393911	0.306381
12.8449	12.6666	0.394476	0.304623
12.8454	12.6661	0.396206	0.304417
12.8459	12.6656	0.39362	0.300799
12.8464	12.6651	0.392738	0.29687
12.8468	12.6647	0.394273	0.294611
12.8473	12.6642	0.39321	0.293251
12.8478	12.6637	0.393651	0.292295
12.8482	12.6632	0.39286	0.290294
12.8487	12.6628	0.392815	0.284981
12.8492	12.6623	0.394042	0.284185
12.8497	12.6619	0.393802	0.282842
12.8501	12.6614	0.393925	0.281449
12.8506	12.6609	0.392252	0.278103
12.8511	12.6604	0.393526	0.276139
12.8516	12.66	0.393841	0.274311
12.852	12.6595	0.392157	0.271836
12.8525	12.659	0.392401	0.273727
12.853	12.6586	0.391494	0.272771
12.8534	12.6581	0.391159	0.270345
12.8539	12.6576	0.392977	0.269026
12.8544	12.6571	0.392463	0.269889
12.8549	12.6567	0.3923	0.270773
12.8553	12.6562	0.391043	0.270731
12.8558	12.6557	0.390763	0.269396
12.8563	12.6552	0.39148	0.270598
12.8567	12.6548	0.391689	0.272982
12.8572	12.6543	0.391191	0.276439
12.8577	12.6538	0.390953	0.277858
12.8582	12.6533	0.390278	0.277425
12.8586	12.6529	0.391859	0.279422
12.8591	12.6524	0.39312	0.282862
12.8596	12.6519	0.392001	0.286565
12.8601	12.6515	0.389923	0.287764
12.8605	12.651	0.391188	0.287628
12.861	12.6505	0.393204	0.290882
12.8615	12.65	0.391709	0.294716
12.8619	12.6496	0.391582	0.297861
12.8624	12.6491	0.391514	0.299449
12.8629	12.6486	0.390418	0.298388
12.8634	12.6482	0.390388	0.302216
12.8638	12.6477	0.389757	0.304184
12.8643	12.6472	0.390622	0.306466
12.8648	12.6467	0.387208	0.307463
12.8652	12.6462	0.385581	0.306552
12.8657	12.6458	0.386869	0.306456
12.8662	12.6453	0.385987	0.308503
12.8667	12.6448	0.386451	0.31165
12.8671	12.6443	0.385997	0.311728
12.8676	12.6439	0.386713	0.311657
12.8681	12.6434	0.388716	0.312505
12.8686	12.6429	0.387677	0.315154
12.869	12.6425	0.388508	0.317746
12.8695	12.642	0.386731	0.316628
12.87	12.6415	0.3871	0.315194
12.8704	12.6411	0.38925	0.315908
12.8709	12.6406	0.389278	0.317289
12.8714	12.6401	0.389279	0.317614
12.8719	12.6396	0.387598	0.316686
12.8723	12.6392	0.387015	0.314361
12.8728	12.6387	0.388931	0.312176
12.8733	12.6383	0.387789	0.315338
12.8737	12.6378	0.387907	0.315136
12.8742	12.6373	0.38661	0.313342
12.8747	12.6368	0.385465	0.309693
12.8752	12.6364	0.387943	0.3104
12.8756	12.6359	0.386183	0.309711
12.8761	12.6354	0.385155	0.310718
12.8766	12.6349	0.386583	0.310513
12.8771	12.6344	0.384807	0.307546
12.8775	12.634	0.386921	0.306825
12.878	12.6335	0.386742	0.308504
12.8785	12.633	0.386758	0.308883
12.8789	12.6326	0.385148	0.30912
12.8794	12.6321	0.385178	0.306794
12.8799	12.6317	0.387059	0.305319
12.8804	12.6312	0.386691	0.307408
12.8808	12.6307	0.385663	0.309064
12.8813	12.6302	0.384912	0.309282
12.8818	12.6298	0.384314	0.305972
12.8822	12.6293	0.389666	0.308456
12.8827	12.6288	0.389723	0.311829
12.8832	12.6284	0.387341	0.309422
12.8837	12.6279	0.384905	0.308544
12.8841	12.6274	0.382818	0.305391
12.8846	12.6269	0.386052	0.306843
12.8851	12.6264	0.38524	0.307353
12.8856	12.626	0.38398	0.308678
12.886	12.6255	0.383492	0.30689
12.8865	12.625	0.384355	0.30394
12.887	12.6245	0.385924	0.303145
12.8874	12.624	0.384404	0.304787
12.8879	12.6236	0.385681	0.305198
12.8884	12.6231	0.383885	0.301822
12.8889	12.6226	0.383673	0.299984
12.8893	12.6222	0.384349	0.29935
12.8898	12.6217	0.383365	0.300461
12.8903	12.6212	0.384254	0.300208
12.8907	12.6207	0.383634	0.300483
12.8912	12.6203	0.383683	0.297662
12.8917	12.6198	0.383759	0.298763
12.8922	12.6193	0.384769	0.300346
12.8926	12.6189	0.383386	0.300053
12.8931	12.6184	0.383409	0.298991
12.8936	12.6179	0.382343	0.296545
12.8941	12.6175	0.384612	0.297789
12.8945	12.617	0.385116	0.298984
12.895	12.6165	0.383372	0.299128
12.8955	12.616	0.383754	0.299858
12.8959	12.6155	0.383586	0.296951
12.8964	12.6151	0.385086	0.297231
12.8969	12.6146	0.385499	0.298532
12.8974	12.6141	0.385321	0.298837
12.8978	12.6136	0.383771	0.296569
12.8983	12.6132	0.383643	0.294961
12.8988	12.6127	0.386413	0.295258
