# 1304     AichiSR QXAFS
# Start     : 8.9544
# End       : 9.0544
# Dir       : Forward
# Points    : 300
# ScanTime  : 1.01549
# Date      : 13.04.23 22:25
# Ring Cur. : 25.5[mA]
12.7557	12.7557	0.404533	1.227
12.7562	12.7553	0.402298	1.22768
12.7566	12.7548	0.402367	1.23284
12.7571	12.7543	0.401429	1.23192
12.7576	12.7538	0.402452	1.22686
12.7581	12.7534	0.403026	1.22439
12.7585	12.7529	0.401877	1.22728
12.759	12.7524	0.402882	1.23047
12.7595	12.752	0.402767	1.22892
12.7599	12.7515	0.403863	1.22344
12.7604	12.751	0.403498	1.2243
12.7609	12.7505	0.401273	1.22602
12.7614	12.7501	0.403102	1.22776
12.7618	12.7496	0.401794	1.22587
12.7623	12.7492	0.401858	1.22389
12.7628	12.7487	0.402959	1.22534
12.7632	12.7482	0.403515	1.22512
12.7637	12.7478	0.403634	1.22686
12.7642	12.7473	0.400666	1.2256
12.7647	12.7468	0.403211	1.22407
12.7651	12.7463	0.401989	1.22229
12.7656	12.7459	0.402328	1.22278
12.7661	12.7454	0.401324	1.22694
12.7666	12.7449	0.403459	1.22563
12.767	12.7444	0.400567	1.21988
12.7675	12.7439	0.403233	1.22006
12.768	12.7435	0.402187	1.22179
12.7684	12.743	0.401986	1.22167
12.7689	12.7425	0.401861	1.22099
12.7694	12.7421	0.401301	1.21764
12.7699	12.7416	0.402644	1.21776
12.7703	12.7411	0.40341	1.21923
12.7708	12.7407	0.401279	1.21841
12.7713	12.7402	0.401976	1.21798
12.7717	12.7397	0.40143	1.21154
12.7722	12.7393	0.403032	1.21685
12.7727	12.7388	0.40161	1.21476
12.7732	12.7383	0.401662	1.21734
12.7736	12.7379	0.402392	1.21461
12.7741	12.7374	0.401601	1.21074
12.7746	12.7369	0.402187	1.21083
12.7751	12.7364	0.402329	1.20922
12.7755	12.7359	0.400696	1.20933
12.776	12.7355	0.400429	1.20776
12.7765	12.735	0.399368	1.20311
12.7769	12.7345	0.401081	1.20293
12.7774	12.734	0.401975	1.2029
12.7779	12.7335	0.401587	1.20179
12.7784	12.7331	0.40095	1.19903
12.7788	12.7326	0.399915	1.19612
12.7793	12.7321	0.401788	1.19434
12.7798	12.7317	0.401011	1.19349
12.7802	12.7312	0.399431	1.1885
12.7807	12.7307	0.399535	1.18618
12.7812	12.7302	0.398579	1.17796
12.7817	12.7298	0.400815	1.1745
12.7821	12.7293	0.399853	1.17582
12.7826	12.7288	0.399368	1.17089
12.7831	12.7284	0.398115	1.16103
12.7836	12.7279	0.398871	1.15179
12.784	12.7274	0.399905	1.14384
12.7845	12.7269	0.398222	1.13268
12.785	12.7265	0.395516	1.11683
12.7854	12.726	0.395993	1.09292
12.7859	12.7255	0.394784	1.06
12.7864	12.725	0.394778	1.0236
12.7869	12.7246	0.393511	0.983286
12.7873	12.7241	0.392755	0.924704
12.7878	12.7236	0.394855	0.859041
12.7883	12.7231	0.396116	0.798515
12.7887	12.7227	0.39905	0.746009
12.7892	12.7222	0.397663	0.696943
12.7897	12.7218	0.397173	0.661234
12.7902	12.7213	0.398291	0.636802
12.7906	12.7208	0.397201	0.621023
12.7911	12.7203	0.398184	0.616271
12.7916	12.7199	0.399245	0.617926
12.7921	12.7194	0.399248	0.619148
12.7925	12.7189	0.398357	0.622528
12.793	12.7185	0.399306	0.628711
12.7935	12.718	0.398593	0.630911
12.7939	12.7175	0.399013	0.633329
12.7944	12.7171	0.396549	0.630601
12.7949	12.7166	0.395865	0.623208
12.7954	12.7161	0.397589	0.612185
12.7958	12.7156	0.398555	0.603487
12.7963	12.7152	0.399389	0.593715
12.7968	12.7147	0.396088	0.581521
12.7972	12.7142	0.397118	0.568643
12.7977	12.7137	0.398153	0.560074
12.7982	12.7133	0.397229	0.550049
12.7987	12.7128	0.399997	0.539876
12.7991	12.7123	0.396486	0.530031
12.7996	12.7119	0.396096	0.516155
12.8001	12.7114	0.397274	0.50186
12.8006	12.7109	0.397286	0.488462
12.801	12.7104	0.399308	0.477184
12.8015	12.71	0.395616	0.459758
12.802	12.7095	0.396184	0.444361
12.8024	12.709	0.397077	0.426595
12.8029	12.7086	0.397931	0.40928
12.8034	12.7081	0.397977	0.394958
12.8039	12.7076	0.395988	0.378617
12.8043	12.7071	0.396423	0.360461
12.8048	12.7067	0.396887	0.345457
12.8053	12.7062	0.396959	0.3331
12.8057	12.7057	0.396538	0.323261
12.8062	12.7052	0.394697	0.310698
12.8067	12.7047	0.397287	0.299475
12.8072	12.7042	0.39795	0.29168
12.8076	12.7038	0.397816	0.286451
12.8081	12.7033	0.397018	0.283538
12.8086	12.7028	0.394288	0.279431
12.8091	12.7024	0.394967	0.277228
12.8095	12.7019	0.396325	0.277596
12.81	12.7014	0.397002	0.280175
12.8105	12.701	0.396161	0.285095
12.8109	12.7005	0.395762	0.28886
12.8114	12.7	0.395133	0.291429
12.8119	12.6995	0.396201	0.295024
12.8124	12.6991	0.39734	0.299483
12.8128	12.6986	0.396349	0.305458
12.8133	12.6982	0.395126	0.309971
12.8138	12.6977	0.394556	0.312648
12.8142	12.6972	0.395564	0.314007
12.8147	12.6967	0.394628	0.317995
12.8152	12.6963	0.396143	0.321394
12.8157	12.6958	0.393229	0.321814
12.8161	12.6953	0.39391	0.318838
12.8166	12.6948	0.394622	0.318165
12.8171	12.6943	0.395477	0.31544
12.8176	12.6939	0.394862	0.314192
12.818	12.6934	0.394094	0.308585
12.8185	12.6929	0.39352	0.302514
12.819	12.6925	0.394511	0.297156
12.8194	12.692	0.395064	0.292425
12.8199	12.6916	0.395922	0.287555
12.8204	12.6911	0.394156	0.282834
12.8209	12.6906	0.393285	0.275928
12.8213	12.6901	0.395739	0.273022
12.8218	12.6897	0.394505	0.271698
12.8223	12.6892	0.395398	0.271273
12.8227	12.6887	0.392375	0.271666
12.8232	12.6883	0.393505	0.271027
12.8237	12.6878	0.39345	0.273065
12.8242	12.6873	0.393047	0.2787
12.8246	12.6869	0.392386	0.283601
12.8251	12.6864	0.39015	0.285756
12.8256	12.6859	0.39083	0.289684
12.8261	12.6854	0.392502	0.292519
12.8265	12.6849	0.390605	0.297335
12.827	12.6845	0.388888	0.301909
12.8275	12.684	0.39055	0.305393
12.8279	12.6835	0.390985	0.307126
12.8284	12.683	0.391827	0.309511
12.8289	12.6826	0.39228	0.31269
12.8294	12.6821	0.390693	0.316919
12.8298	12.6816	0.390256	0.320635
12.8303	12.6812	0.389809	0.320611
12.8308	12.6807	0.390747	0.324472
12.8312	12.6802	0.392155	0.328652
12.8317	12.6797	0.392008	0.331487
12.8322	12.6793	0.390743	0.333613
12.8327	12.6788	0.391402	0.333168
12.8331	12.6783	0.392702	0.335662
12.8336	12.6779	0.392864	0.337367
12.8341	12.6774	0.392173	0.337542
12.8346	12.6769	0.389316	0.337763
12.835	12.6764	0.390313	0.335715
12.8355	12.676	0.392126	0.335811
12.836	12.6755	0.391012	0.335758
12.8364	12.675	0.389526	0.337314
12.8369	12.6745	0.390118	0.334788
12.8374	12.674	0.389545	0.331888
12.8379	12.6736	0.391504	0.332226
12.8383	12.6731	0.389379	0.33086
12.8388	12.6726	0.38952	0.331069
12.8393	12.6722	0.388931	0.329154
12.8397	12.6717	0.388237	0.324787
12.8402	12.6712	0.390721	0.32359
12.8407	12.6707	0.389688	0.323531
12.8412	12.6703	0.389451	0.322169
12.8416	12.6698	0.388004	0.31937
12.8421	12.6693	0.388429	0.31479
12.8426	12.6689	0.391469	0.312787
12.8431	12.6684	0.388925	0.311704
12.8435	12.668	0.389211	0.31013
12.844	12.6675	0.388219	0.306509
12.8445	12.667	0.387415	0.302265
12.8449	12.6665	0.389806	0.300499
12.8454	12.6661	0.388694	0.298795
12.8459	12.6656	0.389441	0.297903
12.8464	12.6651	0.387386	0.294868
12.8468	12.6646	0.387567	0.290527
12.8473	12.6641	0.391158	0.289468
12.8478	12.6637	0.394218	0.290847
12.8482	12.6632	0.389779	0.288215
12.8487	12.6627	0.387318	0.283748
12.8492	12.6623	0.389015	0.280655
12.8497	12.6618	0.389279	0.278411
12.8501	12.6614	0.388159	0.277668
12.8506	12.6609	0.387038	0.276344
12.8511	12.6604	0.384838	0.27363
12.8516	12.6599	0.385825	0.269717
12.852	12.6595	0.387328	0.268835
12.8525	12.659	0.389181	0.269707
12.853	12.6585	0.387145	0.268639
12.8534	12.6581	0.386325	0.266289
12.8539	12.6576	0.38485	0.264913
12.8544	12.6571	0.387952	0.265796
12.8549	12.6566	0.385834	0.266992
12.8553	12.6562	0.386799	0.267824
12.8558	12.6557	0.38427	0.267917
12.8563	12.6552	0.386879	0.26692
12.8567	12.6547	0.387257	0.269485
12.8572	12.6542	0.388286	0.271568
12.8577	12.6538	0.388397	0.274424
12.8582	12.6533	0.387406	0.276371
12.8586	12.6528	0.387977	0.276467
12.8591	12.6524	0.389745	0.279957
12.8596	12.6519	0.388583	0.283392
12.8601	12.6514	0.387038	0.285703
12.8605	12.6509	0.388139	0.287664
12.861	12.6505	0.387366	0.288545
12.8615	12.65	0.39023	0.293075
12.8619	12.6495	0.390761	0.295955
12.8624	12.6491	0.387912	0.297587
12.8629	12.6486	0.390185	0.299027
12.8634	12.6481	0.385958	0.299005
12.8638	12.6476	0.389086	0.302327
12.8643	12.6472	0.388199	0.305796
12.8648	12.6467	0.384832	0.306426
12.8652	12.6462	0.385456	0.305448
12.8657	12.6457	0.384556	0.306381
12.8662	12.6452	0.385232	0.307076
12.8667	12.6448	0.386695	0.310918
12.8671	12.6443	0.387102	0.313193
12.8676	12.6438	0.386476	0.311747
12.8681	12.6433	0.387521	0.312388
12.8686	12.6429	0.387866	0.315202
12.869	12.6424	0.388444	0.315941
12.8695	12.642	0.388554	0.318507
12.87	12.6415	0.389497	0.317424
12.8704	12.641	0.387972	0.31625
12.8709	12.6405	0.390534	0.316915
12.8714	12.6401	0.390129	0.318852
12.8719	12.6396	0.389334	0.319532
12.8723	12.6391	0.389775	0.316739
12.8728	12.6387	0.389303	0.315731
12.8733	12.6382	0.389568	0.315097
12.8737	12.6377	0.390011	0.316796
12.8742	12.6373	0.389034	0.315275
12.8747	12.6368	0.389376	0.313457
12.8752	12.6363	0.388398	0.310703
12.8756	12.6358	0.389483	0.310877
12.8761	12.6354	0.388862	0.312784
12.8766	12.6349	0.388763	0.312138
12.8771	12.6344	0.389413	0.309674
12.8775	12.6339	0.38952	0.309036
12.878	12.6335	0.388801	0.309805
12.8785	12.633	0.391899	0.312215
12.8789	12.6325	0.389264	0.311448
12.8794	12.6321	0.389307	0.309431
12.8799	12.6316	0.389009	0.310377
12.8804	12.6311	0.389693	0.309768
12.8808	12.6306	0.389679	0.311795
12.8813	12.6302	0.388597	0.312168
12.8818	12.6297	0.388667	0.311118
12.8822	12.6292	0.388069	0.310179
12.8827	12.6288	0.390469	0.311622
12.8832	12.6283	0.392459	0.313346
12.8837	12.6278	0.388821	0.311799
12.8841	12.6274	0.390938	0.311943
12.8846	12.6269	0.390386	0.311673
12.8851	12.6264	0.389184	0.310686
12.8856	12.6259	0.390142	0.311533
12.886	12.6254	0.388746	0.310322
12.8865	12.625	0.389408	0.309484
12.887	12.6245	0.391115	0.307831
12.8874	12.624	0.39113	0.307804
12.8879	12.6235	0.390807	0.30665
12.8884	12.6231	0.390118	0.307523
12.8889	12.6226	0.389131	0.304554
12.8893	12.6221	0.390006	0.304694
12.8898	12.6217	0.387991	0.303364
12.8903	12.6212	0.390221	0.305458
12.8907	12.6207	0.388878	0.304326
12.8912	12.6202	0.389926	0.303887
12.8917	12.6198	0.389604	0.302357
12.8922	12.6193	0.389895	0.302431
12.8926	12.6188	0.390121	0.303549
12.8931	12.6184	0.388616	0.303612
12.8936	12.6179	0.388351	0.30177
12.8941	12.6174	0.390476	0.301274
12.8945	12.6169	0.389592	0.303633
12.895	12.6165	0.388489	0.303677
12.8955	12.616	0.388447	0.301999
12.8959	12.6155	0.389559	0.301321
12.8964	12.615	0.390106	0.300689
12.8969	12.6145	0.390413	0.301446
12.8974	12.6141	0.390673	0.302389
12.8978	12.6136	0.388492	0.300335
12.8983	12.6131	0.388887	0.298527
12.8988	12.6127	0.390715	0.298108
