# 1304     AichiSR QXAFS
# Start     : 8.9544
# End       : 9.0544
# Dir       : Backward
# Points    : 300
# ScanTime  : 1.01549
# Date      : 13.04.23 22:25
# Ring Cur. : 25.5[mA]
12.7557	12.6118	0.300777	0.228223
12.7562	12.6122	0.298642	0.228912
12.7566	12.6127	0.298203	0.231081
12.7571	12.6131	0.301718	0.232286
12.7576	12.6136	0.298666	0.230931
12.7581	12.6141	0.301478	0.231226
12.7585	12.6145	0.303685	0.23595
12.759	12.615	0.30095	0.235017
12.7595	12.6155	0.301025	0.234849
12.7599	12.616	0.30302	0.234449
12.7604	12.6165	0.303919	0.234565
12.7609	12.6169	0.302341	0.235712
12.7614	12.6174	0.301761	0.236602
12.7618	12.6179	0.301955	0.238096
12.7623	12.6184	0.301964	0.234098
12.7628	12.6188	0.305164	0.235661
12.7632	12.6193	0.303448	0.236903
12.7637	12.6198	0.302737	0.237766
12.7642	12.6202	0.303347	0.237842
12.7647	12.6207	0.304033	0.236938
12.7651	12.6212	0.305327	0.237894
12.7656	12.6217	0.303899	0.236711
12.7661	12.6221	0.30614	0.239961
12.7666	12.6226	0.30326	0.238826
12.767	12.6231	0.304399	0.239739
12.7675	12.6235	0.305851	0.239648
12.768	12.624	0.306951	0.242681
12.7684	12.6245	0.304772	0.241444
12.7689	12.625	0.303311	0.240422
12.7694	12.6254	0.305791	0.241868
12.7699	12.6259	0.306555	0.242491
12.7703	12.6264	0.306548	0.243917
12.7708	12.6269	0.30517	0.244445
12.7713	12.6274	0.306381	0.245332
12.7717	12.6278	0.30421	0.243271
12.7722	12.6283	0.307553	0.24497
12.7727	12.6288	0.306595	0.246198
12.7732	12.6292	0.306539	0.24803
12.7736	12.6297	0.305998	0.24636
12.7741	12.6302	0.305969	0.245509
12.7746	12.6306	0.309117	0.246
12.7751	12.6311	0.306297	0.246127
12.7755	12.6316	0.307483	0.248224
12.776	12.6321	0.306481	0.245006
12.7765	12.6325	0.306952	0.244775
12.7769	12.633	0.308507	0.24471
12.7774	12.6335	0.309078	0.247423
12.7779	12.6339	0.307937	0.24655
12.7784	12.6344	0.30842	0.247196
12.7788	12.6349	0.309425	0.247122
12.7793	12.6354	0.311584	0.246744
12.7798	12.6358	0.309937	0.24953
12.7802	12.6363	0.30963	0.24974
12.7807	12.6368	0.308565	0.24942
12.7812	12.6373	0.307691	0.24702
12.7817	12.6377	0.311858	0.251153
12.7821	12.6382	0.310851	0.251476
12.7826	12.6387	0.310148	0.252785
12.7831	12.6391	0.30892	0.253599
12.7836	12.6396	0.31214	0.252495
12.784	12.6401	0.310434	0.252075
12.7845	12.6405	0.311387	0.254051
12.785	12.641	0.311947	0.255415
12.7854	12.6415	0.311578	0.253515
12.7859	12.6419	0.310357	0.254224
12.7864	12.6424	0.312195	0.254481
12.7869	12.6429	0.311662	0.255414
12.7873	12.6433	0.310444	0.253524
12.7878	12.6438	0.309998	0.253461
12.7883	12.6443	0.309016	0.251069
12.7887	12.6448	0.310743	0.251792
12.7892	12.6452	0.308884	0.250705
12.7897	12.6457	0.310956	0.252489
12.7902	12.6462	0.31085	0.248764
12.7906	12.6467	0.309435	0.246943
12.7911	12.6472	0.310452	0.246305
12.7916	12.6476	0.31207	0.247385
12.7921	12.6481	0.312672	0.246445
12.7925	12.6486	0.312035	0.243783
12.793	12.6491	0.314159	0.24244
12.7935	12.6495	0.314175	0.241328
12.7939	12.65	0.31333	0.239309
12.7944	12.6505	0.313622	0.238936
12.7949	12.6509	0.315832	0.237496
12.7954	12.6514	0.315385	0.232832
12.7958	12.6519	0.315087	0.23084
12.7963	12.6524	0.316818	0.232568
12.7968	12.6528	0.315644	0.230854
12.7972	12.6533	0.315024	0.226402
12.7977	12.6538	0.316844	0.224912
12.7982	12.6542	0.317582	0.223761
12.7987	12.6547	0.315822	0.223413
12.7991	12.6552	0.315332	0.222169
12.7996	12.6557	0.317727	0.221055
12.8001	12.6562	0.316248	0.218965
12.8006	12.6566	0.316522	0.217102
12.801	12.6571	0.317738	0.219029
12.8015	12.6576	0.316327	0.218892
12.802	12.6581	0.316402	0.217542
12.8024	12.6585	0.31676	0.218998
12.8029	12.659	0.317943	0.218376
12.8034	12.6595	0.316363	0.220696
12.8039	12.6599	0.317361	0.22262
12.8043	12.6604	0.318211	0.222977
12.8048	12.6609	0.31775	0.222512
12.8053	12.6613	0.317926	0.22554
12.8057	12.6618	0.320084	0.228509
12.8062	12.6623	0.317557	0.229666
12.8067	12.6627	0.318707	0.229974
12.8072	12.6632	0.320284	0.231226
12.8076	12.6637	0.31985	0.233348
12.8081	12.6641	0.318432	0.235332
12.8086	12.6646	0.316705	0.238401
12.8091	12.6651	0.318994	0.238773
12.8095	12.6656	0.320001	0.239618
12.81	12.666	0.320091	0.242825
12.8105	12.6665	0.320931	0.247012
12.8109	12.667	0.317018	0.2478
12.8114	12.6675	0.318551	0.247352
12.8119	12.668	0.321082	0.249811
12.8124	12.6684	0.320092	0.252487
12.8128	12.6689	0.318893	0.254072
12.8133	12.6693	0.319738	0.257913
12.8138	12.6698	0.319517	0.257998
12.8142	12.6703	0.319565	0.259232
12.8147	12.6707	0.319266	0.263078
12.8152	12.6712	0.322924	0.26707
12.8157	12.6717	0.319774	0.266463
12.8161	12.6722	0.319306	0.267552
12.8166	12.6726	0.320587	0.269401
12.8171	12.6731	0.320973	0.27092
12.8176	12.6736	0.320494	0.271707
12.818	12.674	0.31968	0.273545
12.8185	12.6745	0.320561	0.273732
12.819	12.675	0.320959	0.27289
12.8194	12.6755	0.321436	0.275553
12.8199	12.676	0.32284	0.278877
12.8204	12.6764	0.319885	0.278191
12.8209	12.6769	0.31895	0.27462
12.8213	12.6774	0.32252	0.277389
12.8218	12.6779	0.322251	0.278058
12.8223	12.6783	0.319038	0.277674
12.8227	12.6788	0.320311	0.277438
12.8232	12.6793	0.321819	0.275787
12.8237	12.6797	0.320955	0.274184
12.8242	12.6802	0.322548	0.272136
12.8246	12.6807	0.321429	0.272892
12.8251	12.6812	0.320103	0.268814
12.8256	12.6816	0.319587	0.265682
12.8261	12.6821	0.320923	0.262726
12.8265	12.6826	0.32026	0.26054
12.827	12.683	0.320949	0.25998
12.8275	12.6835	0.319039	0.257632
12.8279	12.684	0.318861	0.252549
12.8284	12.6845	0.321461	0.250668
12.8289	12.6849	0.321604	0.25006
12.8294	12.6854	0.323357	0.249097
12.8298	12.6859	0.32047	0.243573
12.8303	12.6864	0.320209	0.239852
12.8308	12.6869	0.322268	0.236684
12.8312	12.6873	0.321518	0.23458
12.8317	12.6878	0.320931	0.232132
12.8322	12.6883	0.321668	0.228739
12.8327	12.6887	0.321055	0.223333
12.8331	12.6892	0.322757	0.22197
12.8336	12.6897	0.323427	0.221938
12.8341	12.6901	0.323523	0.224582
12.8346	12.6906	0.322567	0.22392
12.835	12.6911	0.320823	0.224707
12.8355	12.6916	0.324235	0.228605
12.836	12.692	0.32418	0.232268
12.8364	12.6925	0.322876	0.237851
12.8369	12.6929	0.322255	0.242178
12.8374	12.6934	0.320128	0.244522
12.8379	12.6939	0.322443	0.248972
12.8383	12.6943	0.322091	0.254405
12.8388	12.6948	0.323859	0.260002
12.8393	12.6953	0.321364	0.260479
12.8397	12.6958	0.320184	0.259084
12.8402	12.6963	0.324135	0.261597
12.8407	12.6967	0.323285	0.262631
12.8412	12.6972	0.321937	0.261109
12.8416	12.6977	0.322191	0.260787
12.8421	12.6982	0.322391	0.255232
12.8426	12.6986	0.320263	0.252025
12.8431	12.6991	0.321995	0.251036
12.8435	12.6995	0.323249	0.249427
12.844	12.7	0.321834	0.244388
12.8445	12.7005	0.321607	0.239477
12.8449	12.701	0.324136	0.237387
12.8454	12.7014	0.321706	0.233639
12.8459	12.7019	0.319845	0.231255
12.8464	12.7024	0.323951	0.229265
12.8468	12.7028	0.321247	0.226232
12.8473	12.7033	0.321866	0.225866
12.8478	12.7038	0.321555	0.229072
12.8482	12.7043	0.323377	0.233678
12.8487	12.7047	0.322801	0.236739
12.8492	12.7052	0.321087	0.239951
12.8497	12.7057	0.324524	0.24996
12.8501	12.7062	0.321771	0.258271
12.8506	12.7067	0.322313	0.266959
12.8511	12.7071	0.323496	0.277356
12.8516	12.7076	0.32359	0.288404
12.852	12.7081	0.32335	0.299941
12.8525	12.7086	0.323986	0.31398
12.853	12.709	0.323664	0.330548
12.8534	12.7095	0.322864	0.342963
12.8539	12.71	0.323605	0.353711
12.8544	12.7104	0.325159	0.368822
12.8549	12.7109	0.324681	0.384156
12.8553	12.7114	0.323947	0.395986
12.8558	12.7119	0.324553	0.407202
12.8563	12.7123	0.322786	0.415911
12.8567	12.7128	0.324317	0.424594
12.8572	12.7133	0.324401	0.43717
12.8577	12.7137	0.324113	0.4485
12.8582	12.7142	0.323123	0.452634
12.8586	12.7147	0.323375	0.45897
12.8591	12.7152	0.326218	0.469383
12.8596	12.7156	0.325278	0.479992
12.8601	12.7161	0.322668	0.488026
12.8605	12.7166	0.323732	0.496845
12.861	12.7171	0.323565	0.505062
12.8615	12.7175	0.323142	0.508253
12.8619	12.718	0.324311	0.51435
12.8624	12.7185	0.322021	0.515186
12.8629	12.7189	0.322869	0.51194
12.8634	12.7194	0.323156	0.509703
12.8638	12.7199	0.325004	0.504668
12.8643	12.7203	0.323769	0.5006
12.8648	12.7208	0.321807	0.499672
12.8652	12.7213	0.322404	0.502411
12.8657	12.7218	0.323566	0.509811
12.8662	12.7222	0.322182	0.521083
12.8667	12.7227	0.321441	0.544123
12.8671	12.7231	0.321181	0.581001
12.8676	12.7236	0.320692	0.61778
12.8681	12.7241	0.319096	0.670472
12.8686	12.7246	0.321096	0.723082
12.869	12.725	0.318355	0.765619
12.8695	12.7255	0.316173	0.806031
12.87	12.726	0.319314	0.847184
12.8704	12.7265	0.321121	0.872275
12.8709	12.7269	0.319519	0.885035
12.8714	12.7274	0.321025	0.907693
12.8719	12.7279	0.322294	0.921435
12.8723	12.7284	0.320688	0.923392
12.8728	12.7288	0.32071	0.930425
12.8733	12.7293	0.323006	0.943287
12.8737	12.7298	0.323237	0.947126
12.8742	12.7302	0.322189	0.94737
12.8747	12.7307	0.321112	0.952546
12.8752	12.7312	0.323016	0.954431
12.8756	12.7317	0.320866	0.953168
12.8761	12.7321	0.321356	0.958306
12.8766	12.7326	0.32287	0.964012
12.8771	12.7331	0.322569	0.957833
12.8775	12.7335	0.322162	0.959769
12.878	12.734	0.324943	0.969503
12.8785	12.7345	0.322862	0.970316
12.8789	12.735	0.320831	0.970982
12.8794	12.7355	0.322555	0.969223
12.8799	12.7359	0.322522	0.968287
12.8804	12.7364	0.323301	0.972554
12.8808	12.7369	0.323987	0.974725
12.8813	12.7374	0.32154	0.975487
12.8818	12.7379	0.321936	0.968773
12.8822	12.7383	0.321419	0.97031
12.8827	12.7388	0.324511	0.979453
12.8832	12.7393	0.323762	0.980428
12.8837	12.7397	0.321034	0.97919
12.8841	12.7402	0.322781	0.977823
12.8846	12.7407	0.322975	0.980197
12.8851	12.7411	0.326254	0.980769
12.8856	12.7416	0.32417	0.981925
12.886	12.7421	0.322736	0.984435
12.8865	12.7426	0.322411	0.975655
12.887	12.743	0.323534	0.981039
12.8874	12.7435	0.324368	0.988766
12.8879	12.744	0.326424	0.985841
12.8884	12.7444	0.323776	0.986534
12.8889	12.7449	0.324144	0.984216
12.8893	12.7454	0.325123	0.984231
12.8898	12.7459	0.327458	0.997325
12.8903	12.7463	0.328663	0.998194
12.8907	12.7468	0.324219	0.992397
12.8912	12.7473	0.323163	0.984524
12.8917	12.7478	0.324659	0.985277
12.8922	12.7482	0.325827	0.991698
12.8926	12.7487	0.325752	0.992789
12.8931	12.7492	0.324333	0.992724
12.8936	12.7496	0.324845	0.989553
12.8941	12.7501	0.324896	0.986961
12.8945	12.7506	0.324863	0.990112
12.895	12.751	0.324941	0.991993
12.8955	12.7515	0.325834	0.995852
12.8959	12.752	0.324082	0.986788
12.8964	12.7524	0.325175	0.987059
12.8969	12.7529	0.325861	0.989891
12.8974	12.7534	0.325597	0.993648
12.8978	12.7538	0.32479	0.995887
12.8983	12.7543	0.324134	0.989303
12.8988	12.7548	0.326113	0.992838
