# 1304     AichiSR QXAFS
# Start     : 8.9544
# End       : 9.0544
# Dir       : Forward
# Points    : 300
# ScanTime  : 1.01549
# Date      : 13.04.23 22:20
# Ring Cur. : 25.6[mA]
12.7557	12.7557	0.400067	1.21959
12.7562	12.7552	0.400176	1.21793
12.7566	12.7548	0.397998	1.2184
12.7571	12.7543	0.399276	1.21786
12.7576	12.7538	0.399007	1.2113
12.7581	12.7533	0.39737	1.21262
12.7585	12.7529	0.400894	1.21835
12.759	12.7524	0.398108	1.21634
12.7595	12.752	0.398744	1.21133
12.7599	12.7515	0.398529	1.21298
12.7604	12.751	0.398681	1.21354
12.7609	12.7505	0.397808	1.21413
12.7614	12.7501	0.397806	1.21496
12.7618	12.7496	0.398755	1.21299
12.7623	12.7491	0.398822	1.20845
12.7628	12.7487	0.399049	1.21071
12.7632	12.7482	0.398355	1.21226
12.7637	12.7477	0.396832	1.21021
12.7642	12.7473	0.396713	1.20688
12.7647	12.7468	0.397615	1.20846
12.7651	12.7463	0.396572	1.20554
12.7656	12.7458	0.396413	1.20639
12.7661	12.7454	0.396552	1.20666
12.7666	12.7449	0.394777	1.20335
12.767	12.7444	0.397457	1.20279
12.7675	12.7439	0.397012	1.20492
12.768	12.7435	0.396789	1.20612
12.7684	12.743	0.396662	1.2057
12.7689	12.7425	0.395629	1.20192
12.7694	12.7421	0.396407	1.20103
12.7699	12.7416	0.396934	1.20318
12.7703	12.7411	0.395126	1.19992
12.7708	12.7406	0.394841	1.20141
12.7713	12.7402	0.394993	1.19467
12.7717	12.7397	0.395817	1.19546
12.7722	12.7392	0.395775	1.1959
12.7727	12.7388	0.397017	1.19735
12.7732	12.7383	0.393922	1.19598
12.7736	12.7378	0.393996	1.19099
12.7741	12.7374	0.395924	1.19316
12.7746	12.7369	0.395038	1.19258
12.7751	12.7364	0.394545	1.18907
12.7755	12.7359	0.394415	1.19349
12.776	12.7354	0.393256	1.18636
12.7765	12.735	0.395542	1.1818
12.7769	12.7345	0.394216	1.18162
12.7774	12.734	0.394732	1.1818
12.7779	12.7335	0.392768	1.17945
12.7784	12.733	0.393509	1.1753
12.7788	12.7326	0.398123	1.18112
12.7793	12.7321	0.397788	1.1884
12.7798	12.7316	0.393567	1.17349
12.7802	12.7312	0.393403	1.17279
12.7807	12.7307	0.393577	1.16455
12.7812	12.7302	0.394995	1.15761
12.7817	12.7297	0.393795	1.15722
12.7821	12.7293	0.394002	1.15494
12.7826	12.7288	0.391654	1.1454
12.7831	12.7284	0.391828	1.1403
12.7836	12.7279	0.395499	1.13149
12.784	12.7274	0.393038	1.12625
12.7845	12.7269	0.391547	1.11174
12.785	12.7265	0.389941	1.0916
12.7854	12.726	0.388978	1.06515
12.7859	12.7255	0.38873	1.03595
12.7864	12.725	0.387261	0.99862
12.7869	12.7245	0.38715	0.956668
12.7873	12.7241	0.386586	0.899482
12.7878	12.7236	0.38844	0.837988
12.7883	12.7231	0.390803	0.779587
12.7887	12.7227	0.391249	0.730081
12.7892	12.7222	0.392315	0.685429
12.7897	12.7218	0.391895	0.649242
12.7902	12.7213	0.392109	0.626599
12.7906	12.7208	0.395377	0.615508
12.7911	12.7203	0.393005	0.609494
12.7916	12.7199	0.392571	0.610755
12.7921	12.7194	0.393557	0.612499
12.7925	12.7189	0.392847	0.61547
12.793	12.7185	0.394016	0.621229
12.7935	12.718	0.393743	0.626657
12.7939	12.7175	0.392507	0.626179
12.7944	12.7171	0.393844	0.622937
12.7949	12.7166	0.393608	0.613759
12.7954	12.7161	0.39504	0.605417
12.7958	12.7156	0.395656	0.597109
12.7963	12.7151	0.395934	0.588421
12.7968	12.7147	0.394529	0.575144
12.7972	12.7142	0.393548	0.561677
12.7977	12.7137	0.395112	0.554353
12.7982	12.7132	0.395296	0.545754
12.7987	12.7128	0.393407	0.533704
12.7991	12.7123	0.393452	0.522496
12.7996	12.7118	0.394902	0.510631
12.8001	12.7114	0.394629	0.497311
12.8006	12.7109	0.39439	0.484822
12.801	12.7104	0.394259	0.472658
12.8015	12.7099	0.393281	0.457101
12.802	12.7095	0.394677	0.438834
12.8024	12.709	0.395059	0.422608
12.8029	12.7085	0.395094	0.407137
12.8034	12.7081	0.395752	0.390924
12.8039	12.7076	0.395865	0.375289
12.8043	12.7071	0.394259	0.357454
12.8048	12.7066	0.395351	0.342589
12.8053	12.7062	0.394752	0.331203
12.8057	12.7057	0.394968	0.319862
12.8062	12.7052	0.395302	0.306914
12.8067	12.7047	0.396032	0.296307
12.8072	12.7042	0.397206	0.290499
12.8076	12.7038	0.396055	0.286207
12.8081	12.7033	0.394905	0.282894
12.8086	12.7028	0.394581	0.28022
12.8091	12.7024	0.394959	0.276896
12.8095	12.7019	0.396579	0.278626
12.81	12.7014	0.396412	0.281671
12.8105	12.7009	0.395857	0.285921
12.8109	12.7005	0.396822	0.288539
12.8114	12.7	0.395748	0.29095
12.8119	12.6995	0.395806	0.296394
12.8124	12.6991	0.396038	0.302666
12.8128	12.6986	0.395729	0.308339
12.8133	12.6981	0.394918	0.308703
12.8138	12.6977	0.395993	0.312893
12.8142	12.6972	0.39729	0.315169
12.8147	12.6967	0.396159	0.319018
12.8152	12.6962	0.3956	0.321475
12.8157	12.6958	0.395469	0.32032
12.8161	12.6953	0.395176	0.320059
12.8166	12.6948	0.39639	0.31971
12.8171	12.6943	0.395298	0.317313
12.8176	12.6939	0.394861	0.314691
12.818	12.6934	0.393975	0.307826
12.8185	12.6929	0.395613	0.303548
12.819	12.6925	0.396252	0.297032
12.8194	12.692	0.39364	0.292162
12.8199	12.6915	0.396338	0.288052
12.8204	12.6911	0.395352	0.281806
12.8209	12.6906	0.39471	0.276338
12.8213	12.6901	0.397205	0.273219
12.8218	12.6897	0.397086	0.274082
12.8223	12.6892	0.394788	0.272642
12.8227	12.6887	0.39409	0.271833
12.8232	12.6883	0.396162	0.273681
12.8237	12.6878	0.396869	0.276934
12.8242	12.6873	0.395182	0.28107
12.8246	12.6868	0.394278	0.285007
12.8251	12.6864	0.394696	0.288462
12.8256	12.6859	0.392981	0.292012
12.8261	12.6854	0.395705	0.29675
12.8265	12.6849	0.393737	0.301651
12.827	12.6844	0.392032	0.305202
12.8275	12.684	0.392298	0.307117
12.8279	12.6835	0.395285	0.309664
12.8284	12.683	0.3931	0.312551
12.8289	12.6826	0.393927	0.316412
12.8294	12.6821	0.394917	0.321476
12.8298	12.6816	0.394708	0.323468
12.8303	12.6811	0.395656	0.324492
12.8308	12.6807	0.396609	0.328061
12.8312	12.6802	0.396714	0.332969
12.8317	12.6797	0.394287	0.334906
12.8322	12.6793	0.396976	0.336012
12.8327	12.6788	0.396983	0.336562
12.8331	12.6783	0.396546	0.34009
12.8336	12.6779	0.395619	0.342541
12.8341	12.6774	0.39539	0.341073
12.8346	12.6769	0.394769	0.339644
12.835	12.6764	0.395255	0.339885
12.8355	12.6759	0.39717	0.340166
12.836	12.6755	0.3964	0.341855
12.8364	12.675	0.394435	0.340191
12.8369	12.6745	0.396219	0.338396
12.8374	12.674	0.396421	0.335868
12.8379	12.6735	0.396684	0.335898
12.8383	12.6731	0.395923	0.336038
12.8388	12.6726	0.396107	0.334532
12.8393	12.6722	0.394395	0.33195
12.8397	12.6717	0.394032	0.329156
12.8402	12.6712	0.395852	0.32912
12.8407	12.6707	0.396319	0.327573
12.8412	12.6703	0.393813	0.32615
12.8416	12.6698	0.393383	0.320583
12.8421	12.6693	0.394828	0.318799
12.8426	12.6689	0.39665	0.317497
12.8431	12.6684	0.394659	0.315939
12.8435	12.6679	0.395289	0.312993
12.844	12.6675	0.395728	0.309862
12.8445	12.667	0.394885	0.306504
12.8449	12.6665	0.396496	0.305837
12.8454	12.666	0.39549	0.303689
12.8459	12.6656	0.392824	0.300934
12.8464	12.6651	0.39377	0.297892
12.8468	12.6646	0.396074	0.295716
12.8473	12.6641	0.395001	0.293087
12.8478	12.6637	0.393678	0.291846
12.8482	12.6632	0.391789	0.288938
12.8487	12.6627	0.394008	0.286277
12.8492	12.6623	0.394395	0.283689
12.8497	12.6618	0.395227	0.282126
12.8501	12.6613	0.3955	0.281555
12.8506	12.6609	0.392696	0.280211
12.8511	12.6604	0.392643	0.277117
12.8516	12.6599	0.39372	0.273808
12.852	12.6594	0.39426	0.274075
12.8525	12.659	0.394198	0.272895
12.853	12.6585	0.391215	0.271649
12.8534	12.6581	0.391849	0.268952
12.8539	12.6576	0.391687	0.26849
12.8544	12.6571	0.393034	0.270024
12.8549	12.6566	0.392194	0.271257
12.8553	12.6561	0.391383	0.271905
12.8558	12.6557	0.392611	0.271407
12.8563	12.6552	0.392085	0.271539
12.8567	12.6547	0.392467	0.273945
12.8572	12.6542	0.394353	0.276886
12.8577	12.6537	0.392184	0.277782
12.8582	12.6533	0.392115	0.278526
12.8586	12.6528	0.393094	0.280021
12.8591	12.6524	0.392854	0.283255
12.8596	12.6519	0.393096	0.285893
12.8601	12.6514	0.390278	0.287728
12.8605	12.6509	0.391359	0.290925
12.861	12.6504	0.393136	0.291166
12.8615	12.65	0.393582	0.294816
12.8619	12.6495	0.392559	0.298475
12.8624	12.649	0.390262	0.299476
12.8629	12.6486	0.390786	0.302268
12.8634	12.6481	0.391728	0.30263
12.8638	12.6476	0.39059	0.30531
12.8643	12.6471	0.390696	0.308846
12.8648	12.6467	0.388244	0.308161
12.8652	12.6462	0.389487	0.308313
12.8657	12.6457	0.388403	0.310128
12.8662	12.6452	0.387537	0.311003
12.8667	12.6448	0.388365	0.312887
12.8671	12.6443	0.386422	0.315194
12.8676	12.6438	0.38644	0.313537
12.8681	12.6433	0.387564	0.313851
12.8686	12.6429	0.389778	0.316303
12.869	12.6424	0.390956	0.318631
12.8695	12.6419	0.388897	0.317633
12.87	12.6415	0.390047	0.315757
12.8704	12.641	0.392184	0.318258
12.8709	12.6405	0.390602	0.319272
12.8714	12.6401	0.391168	0.319216
12.8719	12.6396	0.390192	0.31836
12.8723	12.6391	0.389332	0.315944
12.8728	12.6387	0.391161	0.315222
12.8733	12.6382	0.389459	0.316101
12.8737	12.6377	0.390099	0.31655
12.8742	12.6373	0.388841	0.31467
12.8747	12.6368	0.387716	0.31252
12.8752	12.6363	0.391455	0.311246
12.8756	12.6358	0.389333	0.312263
12.8761	12.6354	0.389926	0.31337
12.8766	12.6349	0.387734	0.313055
12.8771	12.6344	0.388675	0.308332
12.8775	12.6339	0.389464	0.309165
12.878	12.6335	0.39007	0.310761
12.8785	12.633	0.388609	0.311639
12.8789	12.6325	0.387283	0.309908
12.8794	12.6321	0.387793	0.308627
12.8799	12.6316	0.390135	0.308701
12.8804	12.6311	0.388481	0.309627
12.8808	12.6306	0.387599	0.311072
12.8813	12.6302	0.388319	0.310111
12.8818	12.6297	0.38604	0.308103
12.8822	12.6292	0.387588	0.308624
12.8827	12.6288	0.387915	0.310434
12.8832	12.6283	0.387052	0.310915
12.8837	12.6278	0.387945	0.31117
12.8841	12.6273	0.387013	0.308762
12.8846	12.6269	0.388232	0.309003
12.8851	12.6264	0.387948	0.310131
12.8856	12.6259	0.387882	0.309198
12.886	12.6254	0.385193	0.308955
12.8865	12.6249	0.386242	0.306691
12.887	12.6245	0.387452	0.306646
12.8874	12.624	0.386456	0.307255
12.8879	12.6235	0.386646	0.30608
12.8884	12.623	0.38498	0.30384
12.8889	12.6226	0.385208	0.300621
12.8893	12.6221	0.388827	0.301722
12.8898	12.6217	0.387094	0.301159
12.8903	12.6212	0.386836	0.302423
12.8907	12.6207	0.386505	0.301243
12.8912	12.6202	0.385965	0.298985
12.8917	12.6197	0.387235	0.300227
12.8922	12.6193	0.38497	0.299346
12.8926	12.6188	0.386593	0.301033
12.8931	12.6184	0.384709	0.300352
12.8936	12.6179	0.385165	0.298961
12.8941	12.6174	0.385253	0.299033
12.8945	12.6169	0.38505	0.300197
12.895	12.6164	0.384944	0.301019
12.8955	12.616	0.383665	0.300147
12.8959	12.6155	0.383813	0.297778
12.8964	12.615	0.383896	0.297001
12.8969	12.6145	0.385613	0.298977
12.8974	12.6141	0.385677	0.298209
12.8978	12.6136	0.383267	0.29606
12.8983	12.6131	0.382345	0.294191
12.8988	12.6127	0.386272	0.295082
