# 1304     AichiSR QXAFS
# Start     : 8.9544
# End       : 9.0544
# Dir       : Forward
# Points    : 300
# ScanTime  : 1.01549
# Date      : 13.04.23 22:23
# Ring Cur. : 25.5[mA]
12.7557	12.7557	0.401613	1.22765
12.7562	12.7552	0.403107	1.22579
12.7566	12.7548	0.40292	1.22706
12.7571	12.7543	0.404222	1.23001
12.7576	12.7538	0.403007	1.22779
12.7581	12.7533	0.40267	1.22633
12.7585	12.7529	0.400836	1.22621
12.759	12.7524	0.40425	1.22535
12.7595	12.752	0.403166	1.22678
12.7599	12.7515	0.402187	1.22835
12.7604	12.751	0.402975	1.22638
12.7609	12.7505	0.402599	1.22562
12.7614	12.7501	0.403239	1.22428
12.7618	12.7496	0.403552	1.22827
12.7623	12.7491	0.402344	1.2273
12.7628	12.7487	0.401434	1.22478
12.7632	12.7482	0.405055	1.22422
12.7637	12.7478	0.404672	1.22383
12.7642	12.7473	0.402008	1.22559
12.7647	12.7468	0.401886	1.22616
12.7651	12.7463	0.403214	1.22435
12.7656	12.7458	0.401489	1.22196
12.7661	12.7454	0.40291	1.22312
12.7666	12.7449	0.402582	1.22679
12.767	12.7444	0.402691	1.22725
12.7675	12.7439	0.403941	1.22302
12.768	12.7435	0.402999	1.22192
12.7684	12.743	0.402626	1.22267
12.7689	12.7425	0.404328	1.22471
12.7694	12.7421	0.402554	1.22629
12.7699	12.7416	0.402773	1.22389
12.7703	12.7411	0.40336	1.21968
12.7708	12.7407	0.402772	1.2187
12.7713	12.7402	0.403086	1.21959
12.7717	12.7397	0.402304	1.21817
12.7722	12.7392	0.400452	1.21386
12.7727	12.7388	0.402586	1.21456
12.7732	12.7383	0.401278	1.2151
12.7736	12.7378	0.40213	1.21564
12.7741	12.7374	0.401209	1.21514
12.7746	12.7369	0.401305	1.21174
12.7751	12.7364	0.402146	1.2097
12.7755	12.7359	0.402384	1.21018
12.776	12.7354	0.403113	1.21146
12.7765	12.735	0.401382	1.20956
12.7769	12.7345	0.401385	1.20689
12.7774	12.734	0.402174	1.20437
12.7779	12.7335	0.402777	1.20546
12.7784	12.7331	0.402863	1.20209
12.7788	12.7326	0.401035	1.20077
12.7793	12.7321	0.39967	1.1953
12.7798	12.7317	0.401893	1.19464
12.7802	12.7312	0.400996	1.1927
12.7807	12.7307	0.400747	1.19189
12.7812	12.7302	0.400101	1.18846
12.7817	12.7298	0.400501	1.18134
12.7821	12.7293	0.401256	1.17765
12.7826	12.7288	0.401428	1.17208
12.7831	12.7284	0.399743	1.16556
12.7836	12.7279	0.399308	1.15829
12.784	12.7274	0.400728	1.14494
12.7845	12.7269	0.399223	1.13069
12.785	12.7265	0.398532	1.11846
12.7854	12.726	0.397949	1.09558
12.7859	12.7255	0.396956	1.06605
12.7864	12.725	0.393684	1.02424
12.7869	12.7245	0.39429	0.981261
12.7873	12.7241	0.39463	0.926317
12.7878	12.7236	0.396099	0.866941
12.7883	12.7231	0.396901	0.804252
12.7887	12.7227	0.398303	0.745309
12.7892	12.7222	0.401494	0.699106
12.7897	12.7218	0.400765	0.664827
12.7902	12.7213	0.401313	0.641951
12.7906	12.7208	0.39985	0.627843
12.7911	12.7203	0.398556	0.61864
12.7916	12.7199	0.400733	0.618116
12.7921	12.7194	0.399901	0.620615
12.7925	12.7189	0.400239	0.628897
12.793	12.7185	0.399714	0.631093
12.7935	12.718	0.39883	0.633755
12.7939	12.7175	0.400753	0.635821
12.7944	12.7171	0.400888	0.63184
12.7949	12.7166	0.400633	0.626737
12.7954	12.7161	0.399091	0.617567
12.7958	12.7156	0.399858	0.603128
12.7963	12.7151	0.399844	0.594348
12.7968	12.7147	0.399624	0.585021
12.7972	12.7142	0.400466	0.574028
12.7977	12.7137	0.398792	0.56106
12.7982	12.7132	0.398817	0.551817
12.7987	12.7128	0.399405	0.539391
12.7991	12.7123	0.39819	0.529705
12.7996	12.7119	0.397683	0.519267
12.8001	12.7114	0.397882	0.505179
12.8006	12.7109	0.396943	0.488746
12.801	12.7104	0.402056	0.475677
12.8015	12.7099	0.398425	0.461834
12.802	12.7095	0.398597	0.446373
12.8024	12.709	0.397064	0.429693
12.8029	12.7086	0.397819	0.410801
12.8034	12.7081	0.399996	0.393313
12.8039	12.7076	0.398599	0.379474
12.8043	12.7071	0.39812	0.365846
12.8048	12.7066	0.398097	0.349867
12.8053	12.7062	0.396848	0.332568
12.8057	12.7057	0.398961	0.322062
12.8062	12.7052	0.397941	0.311932
12.8067	12.7047	0.397553	0.303116
12.8072	12.7042	0.397186	0.294744
12.8076	12.7038	0.398109	0.286709
12.8081	12.7033	0.397929	0.282363
12.8086	12.7028	0.398483	0.279626
12.8091	12.7024	0.398003	0.279535
12.8095	12.7019	0.39789	0.27982
12.81	12.7014	0.396931	0.280977
12.8105	12.701	0.398705	0.284542
12.8109	12.7005	0.397695	0.288764
12.8114	12.7	0.396858	0.293119
12.8119	12.6995	0.39772	0.298011
12.8124	12.6991	0.39647	0.300953
12.8128	12.6986	0.396992	0.305727
12.8133	12.6982	0.396327	0.31043
12.8138	12.6977	0.397974	0.314196
12.8142	12.6972	0.396662	0.316933
12.8147	12.6967	0.396584	0.318465
12.8152	12.6963	0.39742	0.319457
12.8157	12.6958	0.395782	0.321905
12.8161	12.6953	0.395854	0.32207
12.8166	12.6948	0.396904	0.320713
12.8171	12.6943	0.395401	0.316294
12.8176	12.6939	0.397803	0.314597
12.818	12.6934	0.396496	0.30963
12.8185	12.6929	0.395924	0.30393
12.819	12.6925	0.395435	0.299198
12.8194	12.692	0.395835	0.292517
12.8199	12.6916	0.397139	0.286239
12.8204	12.6911	0.395999	0.282933
12.8209	12.6906	0.395387	0.279635
12.8213	12.6901	0.395369	0.274145
12.8218	12.6897	0.39421	0.271585
12.8223	12.6892	0.396874	0.271688
12.8227	12.6887	0.39501	0.273494
12.8232	12.6883	0.394643	0.274419
12.8237	12.6878	0.394283	0.276369
12.8242	12.6873	0.393964	0.278661
12.8246	12.6868	0.395769	0.282415
12.8251	12.6864	0.393551	0.286815
12.8256	12.6859	0.392182	0.291566
12.8261	12.6854	0.393044	0.295165
12.8265	12.6849	0.3935	0.297216
12.827	12.6844	0.39386	0.302408
12.8275	12.684	0.39214	0.306935
12.8279	12.6835	0.391392	0.309392
12.8284	12.683	0.391392	0.312286
12.8289	12.6826	0.393044	0.314523
12.8294	12.6821	0.393962	0.317693
12.8298	12.6816	0.392744	0.320309
12.8303	12.6812	0.392673	0.324834
12.8308	12.6807	0.393852	0.326615
12.8312	12.6802	0.394157	0.328781
12.8317	12.6797	0.395219	0.331289
12.8322	12.6793	0.393577	0.335372
12.8327	12.6788	0.394136	0.337143
12.8331	12.6783	0.393683	0.338391
12.8336	12.6779	0.393678	0.337647
12.8341	12.6774	0.394999	0.338203
12.8346	12.6769	0.394361	0.339468
12.835	12.6764	0.391337	0.340641
12.8355	12.6759	0.39215	0.33898
12.836	12.6755	0.394474	0.337459
12.8364	12.675	0.393975	0.336695
12.8369	12.6745	0.394075	0.336215
12.8374	12.674	0.392272	0.335894
12.8379	12.6735	0.392785	0.33482
12.8383	12.6731	0.392953	0.330819
12.8388	12.6726	0.393142	0.332167
12.8393	12.6722	0.394524	0.331514
12.8397	12.6717	0.392341	0.328531
12.8402	12.6712	0.392061	0.326653
12.8407	12.6707	0.392306	0.323598
12.8412	12.6703	0.392408	0.321513
12.8416	12.6698	0.391428	0.322167
12.8421	12.6693	0.390788	0.318035
12.8426	12.6689	0.392121	0.315271
12.8431	12.6684	0.391872	0.311981
12.8435	12.668	0.393269	0.309994
12.844	12.6675	0.392456	0.308739
12.8445	12.667	0.389832	0.3054
12.8449	12.6665	0.390867	0.302077
12.8454	12.666	0.392198	0.299195
12.8459	12.6656	0.392532	0.297667
12.8464	12.6651	0.390491	0.296022
12.8468	12.6646	0.390256	0.293724
12.8473	12.6641	0.389639	0.290614
12.8478	12.6637	0.388177	0.287146
12.8482	12.6632	0.390992	0.286137
12.8487	12.6627	0.390388	0.28419
12.8492	12.6623	0.389838	0.283484
12.8497	12.6618	0.389373	0.27977
12.8501	12.6613	0.389947	0.277153
12.8506	12.6609	0.390207	0.276746
12.8511	12.6604	0.389048	0.275635
12.8516	12.6599	0.388288	0.272729
12.852	12.6595	0.38845	0.270781
12.8525	12.659	0.387903	0.268939
12.853	12.6585	0.38843	0.268256
12.8534	12.6581	0.389935	0.26885
12.8539	12.6576	0.386525	0.268258
12.8544	12.6571	0.387501	0.266248
12.8549	12.6566	0.390198	0.266847
12.8553	12.6562	0.388919	0.268336
12.8558	12.6557	0.389041	0.270275
12.8563	12.6552	0.387101	0.271614
12.8567	12.6547	0.388351	0.270569
12.8572	12.6542	0.388594	0.270379
12.8577	12.6538	0.392652	0.276475
12.8582	12.6533	0.391105	0.278589
12.8586	12.6528	0.386934	0.278969
12.8591	12.6524	0.387899	0.279641
12.8596	12.6519	0.388394	0.282117
12.8601	12.6514	0.388791	0.285375
12.8605	12.6509	0.389122	0.287564
12.861	12.6505	0.387506	0.290098
12.8615	12.65	0.388389	0.291087
12.8619	12.6495	0.387791	0.29156
12.8624	12.649	0.388423	0.296334
12.8629	12.6486	0.388433	0.300497
12.8634	12.6481	0.386219	0.301234
12.8638	12.6476	0.387018	0.300506
12.8643	12.6472	0.386869	0.303198
12.8648	12.6467	0.384431	0.305274
12.8652	12.6462	0.383291	0.305486
12.8657	12.6457	0.381975	0.305557
12.8662	12.6452	0.383456	0.306308
12.8667	12.6448	0.384852	0.307991
12.8671	12.6443	0.384736	0.311319
12.8676	12.6438	0.385289	0.313317
12.8681	12.6433	0.384996	0.31341
12.8686	12.6429	0.385925	0.313039
12.869	12.6424	0.387627	0.313581
12.8695	12.642	0.388496	0.315271
12.87	12.6415	0.386916	0.31709
12.8704	12.641	0.388536	0.318761
12.8709	12.6405	0.38778	0.316636
12.8714	12.6401	0.388842	0.315776
12.8719	12.6396	0.388809	0.317056
12.8723	12.6391	0.389033	0.319292
12.8728	12.6387	0.387455	0.316759
12.8733	12.6382	0.387749	0.314058
12.8737	12.6377	0.389451	0.313692
12.8742	12.6373	0.389219	0.313706
12.8747	12.6368	0.388388	0.31437
12.8752	12.6363	0.387873	0.313098
12.8756	12.6358	0.387844	0.311036
12.8761	12.6354	0.389206	0.309309
12.8766	12.6349	0.386993	0.310894
12.8771	12.6344	0.388914	0.31121
12.8775	12.6339	0.388546	0.310916
12.878	12.6335	0.388321	0.309755
12.8785	12.633	0.38928	0.309801
12.8789	12.6325	0.389579	0.308708
12.8794	12.6321	0.388916	0.311112
12.8799	12.6316	0.388229	0.309288
12.8804	12.6311	0.387697	0.30884
12.8808	12.6306	0.390416	0.309301
12.8813	12.6302	0.390719	0.31007
12.8818	12.6297	0.389731	0.311055
12.8822	12.6292	0.388422	0.311642
12.8827	12.6288	0.389162	0.309398
12.8832	12.6283	0.390111	0.310137
12.8837	12.6278	0.389865	0.311453
12.8841	12.6274	0.389521	0.313342
12.8846	12.6269	0.388759	0.311349
12.8851	12.6264	0.389752	0.30933
12.8856	12.6259	0.390532	0.308361
12.886	12.6254	0.389742	0.309941
12.8865	12.625	0.389908	0.31096
12.887	12.6245	0.38958	0.307688
12.8874	12.624	0.38906	0.306526
12.8879	12.6235	0.392652	0.305784
12.8884	12.6231	0.389492	0.306575
12.8889	12.6226	0.389983	0.306806
12.8893	12.6221	0.38862	0.306263
12.8898	12.6217	0.388009	0.304288
12.8903	12.6212	0.391006	0.301841
12.8907	12.6207	0.388706	0.303728
12.8912	12.6202	0.389544	0.303745
12.8917	12.6197	0.388077	0.30298
12.8922	12.6193	0.388838	0.30152
12.8926	12.6188	0.390612	0.30266
12.8931	12.6184	0.388417	0.302248
12.8936	12.6179	0.388271	0.304202
12.8941	12.6174	0.389981	0.302529
12.8945	12.6169	0.38871	0.301245
12.895	12.6164	0.389796	0.302696
12.8955	12.616	0.390726	0.303579
12.8959	12.6155	0.38903	0.302565
12.8964	12.615	0.38834	0.302195
12.8969	12.6145	0.388267	0.301267
12.8974	12.6141	0.391035	0.300896
12.8978	12.6136	0.38967	0.30276
12.8983	12.6131	0.389822	0.302531
12.8988	12.6127	0.389482	0.299913
