# 1304     AichiSR QXAFS
# Start     : 8.9544
# End       : 9.0544
# Dir       : Backward
# Points    : 300
# ScanTime  : 1.01549
# Date      : 13.04.23 22:29
# Ring Cur. : 25.6[mA]
12.7557	12.6118	0.29516	0.224731
12.7562	12.6123	0.29549	0.225835
12.7566	12.6127	0.296419	0.228834
12.7571	12.6132	0.295234	0.228848
12.7576	12.6137	0.296676	0.228123
12.7581	12.6141	0.297425	0.229202
12.7585	12.6146	0.299288	0.233569
12.759	12.6151	0.296739	0.231874
12.7595	12.6155	0.297477	0.232302
12.7599	12.616	0.298591	0.23216
12.7604	12.6165	0.299513	0.233003
12.7609	12.617	0.29899	0.234162
12.7614	12.6175	0.298752	0.233733
12.7618	12.6179	0.299083	0.233734
12.7623	12.6184	0.297133	0.231608
12.7628	12.6189	0.299391	0.232602
12.7632	12.6193	0.299821	0.23446
12.7637	12.6198	0.298592	0.235302
12.7642	12.6203	0.299834	0.233354
12.7647	12.6208	0.300014	0.233937
12.7651	12.6212	0.301235	0.235542
12.7656	12.6217	0.298649	0.233828
12.7661	12.6222	0.301333	0.237586
12.7666	12.6226	0.300076	0.235308
12.767	12.6231	0.300539	0.234238
12.7675	12.6236	0.301801	0.235101
12.768	12.6241	0.300867	0.240053
12.7684	12.6245	0.30134	0.239716
12.7689	12.625	0.299993	0.238136
12.7694	12.6255	0.302523	0.238715
12.7699	12.626	0.302969	0.239318
12.7703	12.6265	0.300232	0.241103
12.7708	12.6269	0.301133	0.243183
12.7713	12.6274	0.301716	0.242209
12.7717	12.6279	0.300252	0.241249
12.7722	12.6284	0.302952	0.242592
12.7727	12.6288	0.303447	0.243707
12.7732	12.6293	0.301442	0.242955
12.7736	12.6298	0.302375	0.243254
12.7741	12.6302	0.303295	0.242096
12.7746	12.6307	0.301908	0.241187
12.7751	12.6312	0.302068	0.241323
12.7755	12.6317	0.303501	0.24465
12.776	12.6321	0.302798	0.241892
12.7765	12.6326	0.302633	0.240388
12.7769	12.633	0.30411	0.241861
12.7774	12.6335	0.304582	0.243321
12.7779	12.634	0.302998	0.243699
12.7784	12.6345	0.30358	0.242344
12.7788	12.6349	0.305508	0.242984
12.7793	12.6354	0.304272	0.244175
12.7798	12.6359	0.304945	0.244867
12.7802	12.6364	0.305397	0.248385
12.7807	12.6368	0.305732	0.244799
12.7812	12.6373	0.304131	0.243799
12.7817	12.6378	0.306877	0.246744
12.7821	12.6383	0.306532	0.248146
12.7826	12.6387	0.306222	0.250161
12.7831	12.6392	0.30411	0.248408
12.7836	12.6396	0.306168	0.248909
12.784	12.6401	0.305694	0.248095
12.7845	12.6406	0.304522	0.248988
12.785	12.6411	0.307121	0.252003
12.7854	12.6415	0.306207	0.24946
12.7859	12.642	0.305247	0.247445
12.7864	12.6425	0.307895	0.249828
12.7869	12.6429	0.308156	0.250928
12.7873	12.6434	0.304958	0.252064
12.7878	12.6438	0.305706	0.249195
12.7883	12.6443	0.307117	0.247767
12.7887	12.6448	0.305759	0.247898
12.7892	12.6453	0.304931	0.246975
12.7897	12.6458	0.304821	0.24791
12.7902	12.6462	0.305685	0.245017
12.7906	12.6467	0.305015	0.242826
12.7911	12.6472	0.305592	0.241236
12.7916	12.6477	0.30695	0.243411
12.7921	12.6482	0.307687	0.243648
12.7925	12.6486	0.305618	0.240345
12.793	12.6491	0.309218	0.237695
12.7935	12.6496	0.308741	0.238575
12.7939	12.65	0.308954	0.235732
12.7944	12.6505	0.309131	0.235367
12.7949	12.651	0.31076	0.233471
12.7954	12.6515	0.309678	0.22912
12.7958	12.6519	0.309729	0.228153
12.7963	12.6524	0.310688	0.228246
12.7968	12.6529	0.309424	0.226823
12.7972	12.6533	0.308676	0.223169
12.7977	12.6538	0.310063	0.222676
12.7982	12.6543	0.311038	0.219929
12.7987	12.6548	0.309569	0.218949
12.7991	12.6552	0.311504	0.219539
12.7996	12.6557	0.310783	0.21749
12.8001	12.6562	0.310431	0.213816
12.8006	12.6567	0.313112	0.215215
12.801	12.6572	0.312226	0.215998
12.8015	12.6576	0.311528	0.215477
12.802	12.6581	0.311228	0.214466
12.8024	12.6586	0.311941	0.214814
12.8029	12.659	0.311113	0.215306
12.8034	12.6595	0.309461	0.215674
12.8039	12.66	0.310472	0.219072
12.8043	12.6604	0.311909	0.218248
12.8048	12.6609	0.310628	0.2166
12.8053	12.6614	0.312595	0.220936
12.8057	12.6619	0.312283	0.223889
12.8062	12.6623	0.312846	0.225514
12.8067	12.6628	0.314063	0.22698
12.8072	12.6632	0.315097	0.228297
12.8076	12.6637	0.312733	0.228915
12.8081	12.6642	0.313131	0.231681
12.8086	12.6647	0.313465	0.234418
12.8091	12.6651	0.31374	0.235199
12.8095	12.6656	0.314288	0.235771
12.81	12.6661	0.313639	0.237859
12.8105	12.6666	0.315357	0.241402
12.8109	12.667	0.311971	0.241055
12.8114	12.6675	0.312593	0.243695
12.8119	12.668	0.31464	0.245163
12.8124	12.6685	0.313281	0.247352
12.8128	12.6689	0.312541	0.249524
12.8133	12.6694	0.314768	0.253331
12.8138	12.6698	0.315351	0.254229
12.8142	12.6703	0.314646	0.254968
12.8147	12.6708	0.314172	0.257564
12.8152	12.6713	0.317153	0.262222
12.8157	12.6717	0.313003	0.26153
12.8161	12.6722	0.313548	0.26228
12.8166	12.6727	0.316801	0.26453
12.8171	12.6731	0.313984	0.26472
12.8176	12.6736	0.313298	0.266261
12.818	12.6741	0.312456	0.268147
12.8185	12.6745	0.315695	0.269452
12.819	12.675	0.314111	0.266853
12.8194	12.6755	0.314862	0.270065
12.8199	12.676	0.315088	0.273011
12.8204	12.6765	0.313007	0.271405
12.8209	12.677	0.314637	0.271673
12.8213	12.6774	0.316185	0.272913
12.8218	12.6779	0.315697	0.271945
12.8223	12.6784	0.314001	0.272176
12.8227	12.6789	0.314506	0.272039
12.8232	12.6793	0.314669	0.270213
12.8237	12.6798	0.315233	0.268879
12.8242	12.6803	0.316329	0.267635
12.8246	12.6807	0.315046	0.266632
12.8251	12.6812	0.31373	0.263331
12.8256	12.6817	0.314461	0.260788
12.8261	12.6822	0.31606	0.258901
12.8265	12.6826	0.314955	0.256297
12.827	12.6831	0.314364	0.256907
12.8275	12.6836	0.315216	0.252856
12.8279	12.684	0.314185	0.24945
12.8284	12.6845	0.315656	0.24723
12.8289	12.685	0.317489	0.245986
12.8294	12.6855	0.316575	0.243611
12.8298	12.6859	0.313996	0.240141
12.8303	12.6864	0.315809	0.235507
12.8308	12.6869	0.317379	0.232299
12.8312	12.6874	0.314424	0.22875
12.8317	12.6879	0.315942	0.227162
12.8322	12.6883	0.315199	0.22315
12.8327	12.6888	0.31458	0.219654
12.8331	12.6893	0.317169	0.219192
12.8336	12.6897	0.31658	0.218494
12.8341	12.6902	0.31615	0.218814
12.8346	12.6907	0.315673	0.22089
12.835	12.6911	0.316718	0.221333
12.8355	12.6916	0.318461	0.224362
12.836	12.6921	0.319363	0.229467
12.8364	12.6925	0.318891	0.235518
12.8369	12.693	0.317578	0.237922
12.8374	12.6935	0.316981	0.241376
12.8379	12.6939	0.316894	0.24522
12.8383	12.6944	0.316618	0.249126
12.8388	12.6949	0.315112	0.254134
12.8393	12.6954	0.315166	0.255529
12.8397	12.6958	0.314149	0.254846
12.8402	12.6963	0.317825	0.256492
12.8407	12.6968	0.316926	0.257363
12.8412	12.6973	0.314547	0.256011
12.8416	12.6977	0.316544	0.255717
12.8421	12.6982	0.316967	0.253551
12.8426	12.6987	0.31564	0.248421
12.8431	12.6991	0.316991	0.247231
12.8435	12.6996	0.316244	0.245384
12.844	12.7001	0.316856	0.23934
12.8445	12.7005	0.314381	0.234001
12.8449	12.701	0.316781	0.233216
12.8454	12.7015	0.316538	0.229121
12.8459	12.702	0.314273	0.225778
12.8464	12.7024	0.314519	0.224888
12.8468	12.7029	0.315648	0.222352
12.8473	12.7034	0.316885	0.221368
12.8478	12.7038	0.316402	0.224164
12.8482	12.7043	0.318752	0.229378
12.8487	12.7048	0.316156	0.231823
12.8492	12.7053	0.315172	0.235939
12.8497	12.7057	0.31909	0.244477
12.8501	12.7062	0.317226	0.252652
12.8506	12.7067	0.316027	0.261401
12.8511	12.7072	0.318054	0.273264
12.8516	12.7077	0.315596	0.280826
12.852	12.7081	0.318523	0.292874
12.8525	12.7086	0.31819	0.308552
12.853	12.7091	0.318222	0.322373
12.8534	12.7095	0.315626	0.333067
12.8539	12.71	0.317885	0.346385
12.8544	12.7105	0.319935	0.360749
12.8549	12.711	0.317451	0.3739
12.8553	12.7114	0.317255	0.387618
12.8558	12.7119	0.320177	0.400511
12.8563	12.7124	0.317745	0.408665
12.8567	12.7128	0.318749	0.419089
12.8572	12.7133	0.318193	0.429611
12.8577	12.7138	0.317932	0.437319
12.8582	12.7142	0.315216	0.441739
12.8586	12.7147	0.316102	0.450179
12.8591	12.7152	0.318543	0.45985
12.8596	12.7157	0.316784	0.466019
12.8601	12.7162	0.316918	0.47681
12.8605	12.7166	0.315676	0.485751
12.861	12.7171	0.316292	0.491846
12.8615	12.7176	0.317181	0.49896
12.8619	12.7181	0.316331	0.504313
12.8624	12.7185	0.317309	0.506598
12.8629	12.719	0.317007	0.503419
12.8634	12.7195	0.316126	0.496863
12.8638	12.7199	0.318504	0.495898
12.8643	12.7204	0.31705	0.492005
12.8648	12.7209	0.315944	0.49135
12.8652	12.7213	0.314832	0.490107
12.8657	12.7218	0.314416	0.495078
12.8662	12.7223	0.315945	0.508502
12.8667	12.7227	0.313802	0.531365
12.8671	12.7232	0.312446	0.559955
12.8676	12.7237	0.310892	0.601476
12.8681	12.7241	0.311634	0.650619
12.8686	12.7246	0.313818	0.701335
12.869	12.7251	0.312034	0.747002
12.8695	12.7256	0.311269	0.791448
12.87	12.726	0.312654	0.827897
12.8704	12.7265	0.313243	0.852942
12.8709	12.727	0.314391	0.870161
12.8714	12.7275	0.314192	0.885405
12.8719	12.7279	0.315238	0.902693
12.8723	12.7284	0.314035	0.903679
12.8728	12.7289	0.311504	0.905715
12.8733	12.7293	0.314673	0.918507
12.8737	12.7298	0.315172	0.92272
12.8742	12.7303	0.312428	0.920206
12.8747	12.7308	0.313432	0.927722
12.8752	12.7312	0.315189	0.933273
12.8756	12.7317	0.316946	0.93718
12.8761	12.7322	0.31489	0.937388
12.8766	12.7326	0.314953	0.94081
12.8771	12.7331	0.315825	0.943271
12.8775	12.7336	0.3152	0.941799
12.878	12.7341	0.320808	0.955773
12.8785	12.7345	0.318501	0.955648
12.8789	12.735	0.315922	0.948373
12.8794	12.7355	0.315105	0.953757
12.8799	12.736	0.313831	0.949769
12.8804	12.7365	0.315358	0.948378
12.8808	12.7369	0.31754	0.952885
12.8813	12.7374	0.316618	0.956416
12.8818	12.7379	0.314338	0.95301
12.8822	12.7384	0.314207	0.9531
12.8827	12.7388	0.317957	0.95912
12.8832	12.7393	0.317788	0.96334
12.8837	12.7398	0.315139	0.958012
12.8841	12.7402	0.315686	0.959913
12.8846	12.7407	0.319388	0.962068
12.8851	12.7412	0.318619	0.96401
12.8856	12.7417	0.317509	0.962886
12.886	12.7421	0.31792	0.965192
12.8865	12.7426	0.317237	0.963906
12.887	12.7431	0.315186	0.959468
12.8874	12.7435	0.318598	0.964746
12.8879	12.744	0.318836	0.969341
12.8884	12.7445	0.317348	0.964512
12.8889	12.745	0.318247	0.966513
12.8893	12.7454	0.320427	0.967455
12.8898	12.7459	0.320989	0.973293
12.8903	12.7464	0.321154	0.97543
12.8907	12.7469	0.31885	0.97497
12.8912	12.7473	0.318786	0.971963
12.8917	12.7478	0.318412	0.972357
12.8922	12.7483	0.324051	0.980787
12.8926	12.7488	0.320931	0.979168
12.8931	12.7492	0.318916	0.975797
12.8936	12.7497	0.320565	0.975646
12.8941	12.7501	0.321826	0.980285
12.8945	12.7506	0.319455	0.976326
12.895	12.7511	0.320515	0.976059
12.8955	12.7516	0.322056	0.984997
12.8959	12.752	0.32209	0.97763
12.8964	12.7525	0.320158	0.973931
12.8969	12.7529	0.324789	0.98534
12.8974	12.7534	0.32371	0.988566
12.8978	12.7539	0.322307	0.983146
12.8983	12.7544	0.323457	0.983986
12.8988	12.7548	0.324468	0.990071
