# 1304     AichiSR QXAFS
# Start     : 8.9544
# End       : 9.0544
# Dir       : Backward
# Points    : 300
# ScanTime  : 1.01549
# Date      : 13.04.23 22:23
# Ring Cur. : 25.4[mA]
12.7557	12.6117	0.30812	0.234061
12.7562	12.6122	0.306518	0.233577
12.7566	12.6127	0.30746	0.234849
12.7571	12.6131	0.307374	0.238297
12.7576	12.6136	0.307974	0.237611
12.7581	12.6141	0.308193	0.23788
12.7585	12.6145	0.311288	0.239319
12.759	12.615	0.309699	0.239415
12.7595	12.6155	0.311678	0.241209
12.7599	12.616	0.311013	0.242343
12.7604	12.6164	0.309651	0.241143
12.7609	12.6169	0.311424	0.240143
12.7614	12.6174	0.311967	0.241581
12.7618	12.6179	0.310989	0.24285
12.7623	12.6183	0.307919	0.241332
12.7628	12.6188	0.31068	0.241315
12.7632	12.6193	0.309421	0.241963
12.7637	12.6197	0.309723	0.241601
12.7642	12.6202	0.310014	0.242874
12.7647	12.6207	0.311323	0.243573
12.7651	12.6212	0.310848	0.242209
12.7656	12.6217	0.311341	0.241873
12.7661	12.6221	0.313619	0.243528
12.7666	12.6226	0.311722	0.245813
12.767	12.623	0.312517	0.247617
12.7675	12.6235	0.309123	0.243529
12.768	12.624	0.31374	0.245817
12.7684	12.6245	0.311249	0.245861
12.7689	12.6249	0.310171	0.247601
12.7694	12.6254	0.311334	0.24937
12.7699	12.6259	0.310293	0.24675
12.7703	12.6264	0.310407	0.247289
12.7708	12.6269	0.311165	0.248299
12.7713	12.6273	0.312239	0.252269
12.7717	12.6278	0.311593	0.250234
12.7722	12.6283	0.312789	0.249882
12.7727	12.6288	0.313886	0.250889
12.7732	12.6292	0.312877	0.250727
12.7736	12.6297	0.313663	0.252372
12.7741	12.6301	0.314803	0.253424
12.7746	12.6306	0.314036	0.250455
12.7751	12.6311	0.314324	0.249391
12.7755	12.6316	0.313227	0.250377
12.776	12.6321	0.31362	0.250582
12.7765	12.6325	0.312241	0.250674
12.7769	12.633	0.312583	0.248195
12.7774	12.6334	0.313125	0.248941
12.7779	12.6339	0.312912	0.250574
12.7784	12.6344	0.314079	0.251517
12.7788	12.6349	0.315007	0.25245
12.7793	12.6353	0.315614	0.250986
12.7798	12.6358	0.313585	0.251459
12.7802	12.6363	0.316666	0.253083
12.7807	12.6368	0.31527	0.254465
12.7812	12.6372	0.313615	0.253535
12.7817	12.6377	0.315557	0.254462
12.7821	12.6382	0.316674	0.255266
12.7826	12.6387	0.313717	0.255106
12.7831	12.6391	0.313037	0.256186
12.7836	12.6396	0.315545	0.258588
12.784	12.64	0.314046	0.254711
12.7845	12.6405	0.313183	0.254532
12.785	12.641	0.315705	0.257772
12.7854	12.6415	0.317017	0.25963
12.7859	12.6419	0.313421	0.258431
12.7864	12.6424	0.314582	0.257416
12.7869	12.6429	0.317814	0.258526
12.7873	12.6433	0.315801	0.256732
12.7878	12.6438	0.313859	0.257308
12.7883	12.6443	0.31449	0.256801
12.7887	12.6447	0.3148	0.254207
12.7892	12.6452	0.31201	0.249968
12.7897	12.6457	0.315017	0.252911
12.7902	12.6462	0.313292	0.251269
12.7906	12.6467	0.312068	0.249777
12.7911	12.6471	0.312643	0.247083
12.7916	12.6476	0.316446	0.248183
12.7921	12.6481	0.315066	0.246585
12.7925	12.6486	0.314753	0.2491
12.793	12.649	0.317503	0.247562
12.7935	12.6495	0.31678	0.242773
12.7939	12.65	0.318733	0.241556
12.7944	12.6504	0.319489	0.241936
12.7949	12.6509	0.318182	0.240411
12.7954	12.6514	0.316618	0.235995
12.7958	12.6519	0.317072	0.234752
12.7963	12.6523	0.319271	0.232712
12.7968	12.6528	0.315642	0.230824
12.7972	12.6533	0.317256	0.23032
12.7977	12.6537	0.316399	0.228672
12.7982	12.6542	0.316992	0.224816
12.7987	12.6547	0.319648	0.224011
12.7991	12.6552	0.318098	0.22338
12.7996	12.6557	0.32007	0.22356
12.8001	12.6561	0.318471	0.222463
12.8006	12.6566	0.318121	0.220479
12.801	12.6571	0.320397	0.220411
12.8015	12.6576	0.319005	0.220298
12.802	12.658	0.319046	0.221008
12.8024	12.6585	0.317681	0.220716
12.8029	12.659	0.317844	0.219194
12.8034	12.6594	0.319479	0.219789
12.8039	12.6599	0.318682	0.222117
12.8043	12.6604	0.318459	0.224944
12.8048	12.6609	0.317971	0.224608
12.8053	12.6613	0.319125	0.226106
12.8057	12.6618	0.322194	0.228046
12.8062	12.6623	0.321022	0.230291
12.8067	12.6627	0.320567	0.232497
12.8072	12.6632	0.322139	0.235433
12.8076	12.6637	0.322297	0.235942
12.8081	12.6641	0.323128	0.236497
12.8086	12.6646	0.321991	0.239816
12.8091	12.6651	0.319692	0.240608
12.8095	12.6656	0.3189	0.2413
12.81	12.666	0.318832	0.242332
12.8105	12.6665	0.321761	0.24429
12.8109	12.667	0.319829	0.247163
12.8114	12.6675	0.319867	0.248916
12.8119	12.6679	0.319913	0.251703
12.8124	12.6684	0.320384	0.253074
12.8128	12.6689	0.320605	0.2544
12.8133	12.6693	0.322518	0.259279
12.8138	12.6698	0.323795	0.261919
12.8142	12.6702	0.320562	0.262444
12.8147	12.6707	0.32153	0.263236
12.8152	12.6712	0.324577	0.266255
12.8157	12.6717	0.322289	0.267555
12.8161	12.6721	0.319289	0.268709
12.8166	12.6726	0.32107	0.271912
12.8171	12.6731	0.320421	0.269247
12.8176	12.6735	0.321608	0.271843
12.818	12.674	0.320945	0.273934
12.8185	12.6745	0.323539	0.277582
12.819	12.675	0.320998	0.275947
12.8194	12.6755	0.321767	0.274868
12.8199	12.6759	0.324348	0.277457
12.8204	12.6764	0.324344	0.278886
12.8209	12.6769	0.320925	0.278296
12.8213	12.6774	0.322803	0.279021
12.8218	12.6779	0.321216	0.277886
12.8223	12.6783	0.323645	0.277958
12.8227	12.6788	0.322616	0.27773
12.8232	12.6793	0.323204	0.279028
12.8237	12.6797	0.322585	0.275446
12.8242	12.6802	0.321581	0.273278
12.8246	12.6807	0.325428	0.272233
12.8251	12.6811	0.3221	0.270924
12.8256	12.6816	0.321859	0.268192
12.8261	12.6821	0.321052	0.264903
12.8265	12.6826	0.32121	0.261101
12.827	12.683	0.322216	0.259357
12.8275	12.6835	0.322652	0.257743
12.8279	12.684	0.322412	0.256791
12.8284	12.6844	0.320202	0.252848
12.8289	12.6849	0.321886	0.248193
12.8294	12.6854	0.323591	0.247636
12.8298	12.6859	0.323087	0.245047
12.8303	12.6864	0.320776	0.241565
12.8308	12.6868	0.320657	0.238561
12.8312	12.6873	0.322684	0.231743
12.8317	12.6878	0.322958	0.230481
12.8322	12.6883	0.32262	0.229009
12.8327	12.6887	0.322022	0.226834
12.8331	12.6892	0.322884	0.224304
12.8336	12.6897	0.323904	0.22261
12.8341	12.6901	0.325986	0.222405
12.8346	12.6906	0.323747	0.224456
12.835	12.6911	0.322925	0.227497
12.8355	12.6915	0.32422	0.229579
12.836	12.692	0.322945	0.232562
12.8364	12.6925	0.323853	0.236221
12.8369	12.6929	0.324068	0.242438
12.8374	12.6934	0.321483	0.247761
12.8379	12.6939	0.321391	0.249009
12.8383	12.6943	0.320451	0.251831
12.8388	12.6948	0.325311	0.257827
12.8393	12.6953	0.32294	0.261312
12.8397	12.6958	0.321173	0.261672
12.8402	12.6962	0.322857	0.263183
12.8407	12.6967	0.321021	0.260353
12.8412	12.6972	0.324438	0.261838
12.8416	12.6977	0.324754	0.261113
12.8421	12.6981	0.322168	0.260187
12.8426	12.6986	0.321206	0.253739
12.8431	12.6991	0.321458	0.250134
12.8435	12.6995	0.322315	0.248514
12.844	12.7	0.320614	0.244071
12.8445	12.7005	0.321122	0.240362
12.8449	12.7009	0.320672	0.235819
12.8454	12.7014	0.322651	0.23102
12.8459	12.7019	0.320781	0.228363
12.8464	12.7024	0.322882	0.229508
12.8468	12.7028	0.322025	0.228431
12.8473	12.7033	0.321574	0.226541
12.8478	12.7038	0.321355	0.225968
12.8482	12.7042	0.325673	0.232675
12.8487	12.7047	0.323904	0.238024
12.8492	12.7052	0.32106	0.242295
12.8497	12.7057	0.322157	0.249875
12.8501	12.7062	0.323541	0.256189
12.8506	12.7066	0.324083	0.265961
12.8511	12.7071	0.32275	0.277445
12.8516	12.7076	0.323863	0.290799
12.852	12.7081	0.321247	0.299477
12.8525	12.7086	0.321271	0.312241
12.853	12.709	0.32591	0.328501
12.8534	12.7095	0.325401	0.343314
12.8539	12.7099	0.322973	0.35619
12.8544	12.7104	0.324603	0.370337
12.8549	12.7109	0.324881	0.383044
12.8553	12.7114	0.323837	0.394011
12.8558	12.7118	0.32492	0.408828
12.8563	12.7123	0.325224	0.421081
12.8567	12.7128	0.320929	0.423528
12.8572	12.7132	0.32247	0.432921
12.8577	12.7137	0.329542	0.451513
12.8582	12.7142	0.326013	0.454889
12.8586	12.7147	0.321571	0.460534
12.8591	12.7151	0.324976	0.470582
12.8596	12.7156	0.324836	0.47758
12.8601	12.7161	0.323199	0.485858
12.8605	12.7166	0.324044	0.497671
12.861	12.7171	0.324408	0.507407
12.8615	12.7175	0.32201	0.506495
12.8619	12.718	0.325043	0.51211
12.8624	12.7185	0.324523	0.514181
12.8629	12.7189	0.322362	0.511557
12.8634	12.7194	0.324036	0.510114
12.8638	12.7199	0.323379	0.502664
12.8643	12.7203	0.320429	0.497552
12.8648	12.7208	0.321253	0.495791
12.8652	12.7213	0.324814	0.506127
12.8657	12.7217	0.320424	0.509992
12.8662	12.7222	0.319403	0.519447
12.8667	12.7227	0.324182	0.548845
12.8671	12.7231	0.324096	0.583529
12.8676	12.7236	0.320995	0.620547
12.8681	12.7241	0.320449	0.671558
12.8686	12.7245	0.320103	0.724293
12.869	12.725	0.318943	0.765026
12.8695	12.7255	0.318099	0.803973
12.87	12.726	0.3216	0.850535
12.8704	12.7264	0.320619	0.876459
12.8709	12.7269	0.320986	0.89328
12.8714	12.7274	0.322758	0.909723
12.8719	12.7279	0.323706	0.923349
12.8723	12.7284	0.325354	0.93616
12.8728	12.7288	0.323569	0.942883
12.8733	12.7293	0.323819	0.946939
12.8737	12.7297	0.323794	0.950193
12.8742	12.7302	0.324599	0.953658
12.8747	12.7307	0.325529	0.96135
12.8752	12.7312	0.323741	0.966108
12.8756	12.7317	0.324818	0.961796
12.8761	12.7321	0.325211	0.964878
12.8766	12.7326	0.327517	0.972926
12.8771	12.7331	0.326902	0.976661
12.8775	12.7335	0.324658	0.973959
12.878	12.734	0.327488	0.977737
12.8785	12.7345	0.328514	0.982194
12.8789	12.735	0.327443	0.979872
12.8794	12.7354	0.328687	0.985527
12.8799	12.7359	0.329463	0.994533
12.8804	12.7364	0.326488	0.987062
12.8808	12.7369	0.327594	0.985036
12.8813	12.7374	0.329015	0.991712
12.8818	12.7378	0.329535	0.991119
12.8822	12.7383	0.326896	0.989871
12.8827	12.7388	0.328709	0.994397
12.8832	12.7392	0.330681	0.991046
12.8837	12.7397	0.328286	0.991686
12.8841	12.7402	0.331375	1.00004
12.8846	12.7407	0.330694	1.00168
12.8851	12.7411	0.329068	0.994271
12.8856	12.7416	0.330457	1.00185
12.886	12.7421	0.331865	1.00466
12.8865	12.7425	0.329966	1.00172
12.887	12.743	0.3293	1.00271
12.8874	12.7435	0.330585	1.00741
12.8879	12.7439	0.33128	1.00495
12.8884	12.7444	0.329497	1.00199
12.8889	12.7449	0.331078	1.01041
12.8893	12.7454	0.33145	1.01011
12.8898	12.7459	0.32893	1.00514
12.8903	12.7463	0.332202	1.00935
12.8907	12.7468	0.333293	1.01254
12.8912	12.7473	0.331462	1.01146
12.8917	12.7478	0.331994	1.01358
12.8922	12.7482	0.333546	1.01513
12.8926	12.7487	0.333634	1.01317
12.8931	12.7492	0.333296	1.01464
12.8936	12.7496	0.333452	1.01841
12.8941	12.7501	0.333454	1.01793
12.8945	12.7505	0.331727	1.01313
12.895	12.751	0.334589	1.01686
12.8955	12.7515	0.335597	1.01911
12.8959	12.752	0.332085	1.01485
12.8964	12.7524	0.333032	1.01583
12.8969	12.7529	0.332859	1.01738
12.8974	12.7534	0.335739	1.02038
12.8978	12.7538	0.332941	1.01563
12.8983	12.7543	0.335404	1.02205
12.8988	12.7548	0.33371	1.02284
