# 1304     AichiSR QXAFS
# Start     : 8.9544
# End       : 9.0544
# Dir       : Backward
# Points    : 300
# ScanTime  : 1.01549
# Date      : 13.04.23 22:28
# Ring Cur. : 25.4[mA]
12.7557	12.6118	0.292783	0.225672
12.7562	12.6123	0.294169	0.226813
12.7566	12.6127	0.297639	0.22693
12.7571	12.6132	0.297984	0.226992
12.7576	12.6136	0.295804	0.227503
12.7581	12.6141	0.295961	0.230146
12.7585	12.6146	0.299372	0.232251
12.759	12.6151	0.296291	0.230484
12.7595	12.6155	0.297093	0.229699
12.7599	12.616	0.298559	0.233973
12.7604	12.6165	0.296309	0.232069
12.7609	12.617	0.296214	0.23197
12.7614	12.6174	0.298332	0.230951
12.7618	12.6179	0.301128	0.233339
12.7623	12.6184	0.29765	0.231482
12.7628	12.6189	0.297078	0.232025
12.7632	12.6193	0.298284	0.234463
12.7637	12.6198	0.299363	0.23287
12.7642	12.6203	0.300501	0.232493
12.7647	12.6207	0.300052	0.233861
12.7651	12.6212	0.298823	0.235557
12.7656	12.6217	0.298983	0.23452
12.7661	12.6222	0.301323	0.234906
12.7666	12.6226	0.301146	0.233834
12.767	12.6231	0.300958	0.235725
12.7675	12.6236	0.29903	0.236757
12.768	12.624	0.299969	0.237678
12.7684	12.6245	0.298556	0.23585
12.7689	12.625	0.30117	0.237048
12.7694	12.6255	0.300636	0.239356
12.7699	12.626	0.298613	0.240121
12.7703	12.6264	0.300074	0.241062
12.7708	12.6269	0.300706	0.240779
12.7713	12.6274	0.303258	0.241081
12.7717	12.6279	0.300812	0.240956
12.7722	12.6283	0.299054	0.24232
12.7727	12.6288	0.302167	0.243125
12.7732	12.6293	0.302834	0.242744
12.7736	12.6297	0.303815	0.240827
12.7741	12.6302	0.300339	0.242003
12.7746	12.6307	0.301689	0.242867
12.7751	12.6312	0.300974	0.241816
12.7755	12.6316	0.301856	0.241287
12.776	12.6321	0.303518	0.241089
12.7765	12.6326	0.302323	0.240954
12.7769	12.633	0.301775	0.242268
12.7774	12.6335	0.302521	0.242696
12.7779	12.634	0.303586	0.24209
12.7784	12.6344	0.305943	0.242032
12.7788	12.6349	0.304481	0.24441
12.7793	12.6354	0.303377	0.24373
12.7798	12.6359	0.302869	0.242561
12.7802	12.6363	0.30554	0.244856
12.7807	12.6368	0.306471	0.245284
12.7812	12.6373	0.30288	0.244777
12.7817	12.6378	0.302897	0.246595
12.7821	12.6382	0.304379	0.246879
12.7826	12.6387	0.304695	0.245707
12.7831	12.6392	0.305071	0.247646
12.7836	12.6396	0.305999	0.247645
12.784	12.6401	0.303458	0.248709
12.7845	12.6406	0.304653	0.248745
12.785	12.641	0.306262	0.249058
12.7854	12.6415	0.307192	0.250175
12.7859	12.642	0.305498	0.249593
12.7864	12.6424	0.305912	0.250973
12.7869	12.6429	0.306005	0.250199
12.7873	12.6434	0.304744	0.248504
12.7878	12.6438	0.306227	0.247259
12.7883	12.6443	0.305833	0.248755
12.7887	12.6448	0.302361	0.246732
12.7892	12.6453	0.30219	0.245035
12.7897	12.6457	0.303681	0.243261
12.7902	12.6462	0.307225	0.24561
12.7906	12.6467	0.304276	0.244455
12.7911	12.6472	0.304629	0.243284
12.7916	12.6477	0.30748	0.243537
12.7921	12.6481	0.307102	0.240188
12.7925	12.6486	0.308515	0.239349
12.793	12.6491	0.310135	0.238925
12.7935	12.6496	0.308283	0.238347
12.7939	12.65	0.307709	0.23586
12.7944	12.6505	0.306901	0.231909
12.7949	12.651	0.310876	0.232112
12.7954	12.6515	0.307998	0.229758
12.7958	12.6519	0.307032	0.228425
12.7963	12.6524	0.308179	0.227014
12.7968	12.6529	0.308394	0.224397
12.7972	12.6533	0.311087	0.223092
12.7977	12.6538	0.309418	0.222348
12.7982	12.6543	0.308712	0.220992
12.7987	12.6547	0.308453	0.219281
12.7991	12.6552	0.310854	0.217917
12.7996	12.6557	0.311942	0.216797
12.8001	12.6562	0.310061	0.215946
12.8006	12.6567	0.310615	0.216101
12.801	12.6571	0.309632	0.214435
12.8015	12.6576	0.308933	0.21336
12.802	12.6581	0.310046	0.212951
12.8024	12.6586	0.310095	0.214853
12.8029	12.659	0.308221	0.215015
12.8034	12.6595	0.307995	0.214417
12.8039	12.66	0.309645	0.215227
12.8043	12.6604	0.312814	0.218347
12.8048	12.6609	0.311307	0.221088
12.8053	12.6614	0.311229	0.222469
12.8057	12.6619	0.31256	0.223808
12.8062	12.6623	0.312233	0.223291
12.8067	12.6628	0.314656	0.225938
12.8072	12.6632	0.312299	0.227825
12.8076	12.6637	0.310781	0.22871
12.8081	12.6642	0.310928	0.229767
12.8086	12.6646	0.31241	0.230911
12.8091	12.6651	0.312778	0.233655
12.8095	12.6656	0.311714	0.235169
12.81	12.6661	0.311342	0.238882
12.8105	12.6666	0.312958	0.239838
12.8109	12.667	0.313103	0.240293
12.8114	12.6675	0.313335	0.243113
12.8119	12.668	0.313636	0.246541
12.8124	12.6685	0.313688	0.248259
12.8128	12.6689	0.31323	0.247745
12.8133	12.6694	0.313879	0.251736
12.8138	12.6698	0.316068	0.254388
12.8142	12.6703	0.313211	0.255313
12.8147	12.6708	0.31214	0.257535
12.8152	12.6712	0.312593	0.259104
12.8157	12.6717	0.312482	0.258209
12.8161	12.6722	0.312749	0.260558
12.8166	12.6726	0.313599	0.265594
12.8171	12.6731	0.310782	0.265137
12.8176	12.6736	0.310787	0.263525
12.818	12.6741	0.313648	0.26653
12.8185	12.6745	0.315524	0.268076
12.819	12.675	0.31201	0.267788
12.8194	12.6755	0.31202	0.270191
12.8199	12.676	0.314943	0.271473
12.8204	12.6765	0.314611	0.270796
12.8209	12.6769	0.314273	0.271741
12.8213	12.6774	0.315422	0.272304
12.8218	12.6779	0.313104	0.272178
12.8223	12.6784	0.312318	0.269914
12.8227	12.6788	0.313933	0.269539
12.8232	12.6793	0.315646	0.269274
12.8237	12.6798	0.313648	0.268039
12.8242	12.6802	0.31131	0.266102
12.8246	12.6807	0.313268	0.263212
12.8251	12.6812	0.315722	0.262215
12.8256	12.6817	0.31522	0.260017
12.8261	12.6821	0.314827	0.259964
12.8265	12.6826	0.313622	0.256728
12.827	12.6831	0.313625	0.251775
12.8275	12.6835	0.313725	0.250181
12.8279	12.684	0.316039	0.248658
12.8284	12.6845	0.314155	0.248063
12.8289	12.685	0.311722	0.24508
12.8294	12.6854	0.313456	0.241082
12.8298	12.6859	0.31273	0.237027
12.8303	12.6864	0.314779	0.234936
12.8308	12.6869	0.315569	0.233987
12.8312	12.6874	0.314429	0.229827
12.8317	12.6878	0.313773	0.224769
12.8322	12.6883	0.315696	0.222041
12.8327	12.6888	0.317524	0.219319
12.8331	12.6892	0.31656	0.219836
12.8336	12.6897	0.313956	0.218839
12.8341	12.6902	0.315196	0.216303
12.8346	12.6906	0.316249	0.216269
12.835	12.6911	0.314743	0.219969
12.8355	12.6916	0.316034	0.225506
12.836	12.6921	0.313828	0.227952
12.8364	12.6925	0.313099	0.229835
12.8369	12.693	0.314723	0.234915
12.8374	12.6934	0.316272	0.240693
12.8379	12.6939	0.315717	0.246691
12.8383	12.6944	0.315522	0.249713
12.8388	12.6949	0.314644	0.249817
12.8393	12.6953	0.315792	0.253424
12.8397	12.6958	0.315825	0.256132
12.8402	12.6963	0.318696	0.25812
12.8407	12.6968	0.314191	0.257559
12.8412	12.6972	0.312872	0.254797
12.8416	12.6977	0.315171	0.253739
12.8421	12.6982	0.315945	0.251675
12.8426	12.6986	0.313806	0.249392
12.8431	12.6991	0.314011	0.246142
12.8435	12.6996	0.314206	0.240517
12.844	12.7	0.314388	0.236533
12.8445	12.7005	0.314518	0.233948
12.8449	12.701	0.316872	0.233655
12.8454	12.7015	0.315441	0.229997
12.8459	12.7019	0.312317	0.224262
12.8464	12.7024	0.314658	0.222791
12.8468	12.7029	0.317113	0.223219
12.8473	12.7033	0.317412	0.223139
12.8478	12.7038	0.312541	0.223554
12.8482	12.7043	0.314988	0.22558
12.8487	12.7048	0.315496	0.229028
12.8492	12.7052	0.314981	0.235757
12.8497	12.7057	0.316233	0.244899
12.8501	12.7062	0.315484	0.252796
12.8506	12.7067	0.315002	0.25832
12.8511	12.7072	0.316688	0.269551
12.8516	12.7077	0.316868	0.281812
12.852	12.7081	0.317494	0.295133
12.8525	12.7086	0.316441	0.308302
12.853	12.7091	0.314892	0.319142
12.8534	12.7095	0.317903	0.331424
12.8539	12.71	0.31668	0.346664
12.8544	12.7105	0.318502	0.362985
12.8549	12.7109	0.317524	0.374035
12.8553	12.7114	0.315448	0.381783
12.8558	12.7119	0.316932	0.395078
12.8563	12.7124	0.318396	0.407065
12.8567	12.7128	0.317807	0.418364
12.8572	12.7133	0.315987	0.426027
12.8577	12.7138	0.315903	0.433136
12.8582	12.7142	0.317344	0.441982
12.8586	12.7147	0.316385	0.449765
12.8591	12.7152	0.317914	0.460356
12.8596	12.7157	0.317459	0.470249
12.8601	12.7162	0.314399	0.474559
12.8605	12.7166	0.317298	0.483649
12.861	12.7171	0.317257	0.490924
12.8615	12.7176	0.315673	0.499216
12.8619	12.7181	0.314468	0.50375
12.8624	12.7185	0.314486	0.500967
12.8629	12.719	0.314919	0.496385
12.8634	12.7194	0.314292	0.494112
12.8638	12.7199	0.315618	0.494289
12.8643	12.7204	0.313435	0.489464
12.8648	12.7208	0.313842	0.484787
12.8652	12.7213	0.31509	0.489199
12.8657	12.7218	0.315224	0.496756
12.8662	12.7223	0.313292	0.507875
12.8667	12.7227	0.312783	0.53204
12.8671	12.7232	0.312783	0.559432
12.8676	12.7236	0.313516	0.59985
12.8681	12.7241	0.311422	0.646416
12.8686	12.7246	0.312151	0.701502
12.869	12.7251	0.310284	0.747684
12.8695	12.7255	0.308315	0.783665
12.87	12.726	0.312313	0.820761
12.8704	12.7265	0.312013	0.850177
12.8709	12.727	0.313299	0.872313
12.8714	12.7274	0.312999	0.885932
12.8719	12.7279	0.311495	0.891258
12.8723	12.7284	0.313899	0.898196
12.8728	12.7289	0.312989	0.907468
12.8733	12.7293	0.314941	0.91769
12.8737	12.7298	0.312277	0.918717
12.8742	12.7303	0.313497	0.919851
12.8747	12.7307	0.315692	0.925964
12.8752	12.7312	0.316238	0.932043
12.8756	12.7317	0.314366	0.933244
12.8761	12.7322	0.313012	0.936671
12.8766	12.7326	0.314718	0.939414
12.8771	12.7331	0.316475	0.940716
12.8775	12.7336	0.316765	0.947561
12.878	12.734	0.314114	0.945151
12.8785	12.7345	0.313951	0.944544
12.8789	12.735	0.312615	0.940688
12.8794	12.7355	0.314015	0.943106
12.8799	12.736	0.316669	0.95152
12.8804	12.7365	0.314791	0.953987
12.8808	12.7369	0.314026	0.951952
12.8813	12.7374	0.315561	0.951875
12.8818	12.7379	0.316376	0.954506
12.8822	12.7384	0.315806	0.953737
12.8827	12.7388	0.316595	0.956723
12.8832	12.7393	0.315456	0.959045
12.8837	12.7398	0.314559	0.951853
12.8841	12.7402	0.315713	0.952238
12.8846	12.7407	0.317437	0.959945
12.8851	12.7412	0.316497	0.959797
12.8856	12.7417	0.31534	0.958248
12.886	12.7421	0.315063	0.957285
12.8865	12.7426	0.317708	0.962973
12.887	12.7431	0.31792	0.962648
12.8874	12.7435	0.318801	0.969044
12.8879	12.744	0.317086	0.966351
12.8884	12.7445	0.317539	0.961772
12.8889	12.7449	0.320474	0.969072
12.8893	12.7454	0.319571	0.971068
12.8898	12.7459	0.319431	0.97192
12.8903	12.7464	0.319239	0.971677
12.8907	12.7468	0.318162	0.965491
12.8912	12.7473	0.319449	0.967885
12.8917	12.7478	0.319795	0.971228
12.8922	12.7483	0.320512	0.9778
12.8926	12.7487	0.317522	0.971484
12.8931	12.7492	0.31841	0.968742
12.8936	12.7497	0.322751	0.976815
12.8941	12.7501	0.320616	0.979061
12.8945	12.7506	0.322549	0.980187
12.895	12.7511	0.32161	0.981089
12.8955	12.7516	0.322189	0.98042
12.8959	12.752	0.321447	0.973422
12.8964	12.7525	0.321091	0.976715
12.8969	12.7529	0.322774	0.986271
12.8974	12.7534	0.320638	0.979512
12.8978	12.7539	0.31931	0.974249
12.8983	12.7543	0.322538	0.977229
12.8988	12.7548	0.322744	0.982544
