# 1304     AichiSR QXAFS
# Start     : 8.9544
# End       : 9.0544
# Dir       : Forward
# Points    : 300
# ScanTime  : 1.01549
# Date      : 13.04.23 22:22
# Ring Cur. : 25.5[mA]
12.7557	12.7557	0.403599	1.23148
12.7562	12.7552	0.402739	1.23145
12.7566	12.7548	0.404218	1.22833
12.7571	12.7543	0.404889	1.2293
12.7576	12.7538	0.405887	1.23226
12.7581	12.7533	0.402617	1.22981
12.7585	12.7529	0.403544	1.22895
12.759	12.7524	0.403766	1.22894
12.7595	12.752	0.405543	1.22763
12.7599	12.7515	0.404762	1.23133
12.7604	12.751	0.402581	1.23225
12.7609	12.7505	0.402898	1.22866
12.7614	12.7501	0.403979	1.22658
12.7618	12.7496	0.404567	1.22711
12.7623	12.7491	0.404266	1.22787
12.7628	12.7487	0.402588	1.22898
12.7632	12.7482	0.402244	1.22855
12.7637	12.7477	0.403954	1.22477
12.7642	12.7473	0.405545	1.22648
12.7647	12.7468	0.403901	1.22655
12.7651	12.7463	0.402551	1.22566
12.7656	12.7458	0.403122	1.22354
12.7661	12.7454	0.402079	1.2237
12.7666	12.7449	0.403455	1.22118
12.767	12.7444	0.403279	1.22636
12.7675	12.7439	0.401682	1.22314
12.768	12.7435	0.403714	1.22217
12.7684	12.743	0.404526	1.22218
12.7689	12.7425	0.401972	1.22157
12.7694	12.7421	0.403427	1.22331
12.7699	12.7416	0.403125	1.22223
12.7703	12.7411	0.403374	1.21713
12.7708	12.7406	0.401972	1.2162
12.7713	12.7402	0.40261	1.22033
12.7717	12.7397	0.402124	1.22136
12.7722	12.7392	0.40097	1.21572
12.7727	12.7388	0.401324	1.2137
12.7732	12.7383	0.403145	1.21275
12.7736	12.7378	0.403412	1.21254
12.7741	12.7374	0.40108	1.21511
12.7746	12.7369	0.401439	1.21328
12.7751	12.7364	0.401268	1.20764
12.7755	12.7359	0.401354	1.20716
12.776	12.7354	0.402856	1.20751
12.7765	12.735	0.403086	1.20818
12.7769	12.7345	0.400771	1.20585
12.7774	12.734	0.401247	1.2019
12.7779	12.7335	0.402151	1.20022
12.7784	12.733	0.400816	1.19916
12.7788	12.7326	0.402082	1.19929
12.7793	12.7321	0.400258	1.1979
12.7798	12.7317	0.401373	1.19107
12.7802	12.7312	0.400864	1.18953
12.7807	12.7307	0.400623	1.1856
12.7812	12.7302	0.401923	1.18513
12.7817	12.7297	0.399715	1.18287
12.7821	12.7293	0.39888	1.17332
12.7826	12.7288	0.399093	1.16715
12.7831	12.7284	0.39916	1.16044
12.7836	12.7279	0.402075	1.15789
12.784	12.7274	0.398587	1.14515
12.7845	12.7269	0.397807	1.13007
12.785	12.7265	0.398917	1.11437
12.7854	12.726	0.3964	1.0924
12.7859	12.7255	0.396496	1.06046
12.7864	12.725	0.393502	1.02443
12.7869	12.7245	0.393167	0.976717
12.7873	12.7241	0.394659	0.920626
12.7878	12.7236	0.394882	0.861068
12.7883	12.7231	0.396164	0.804265
12.7887	12.7227	0.397991	0.747222
12.7892	12.7222	0.398797	0.693478
12.7897	12.7218	0.399588	0.659487
12.7902	12.7213	0.399916	0.637561
12.7906	12.7208	0.398699	0.626
12.7911	12.7203	0.398115	0.619558
12.7916	12.7199	0.3973	0.617612
12.7921	12.7194	0.399068	0.620378
12.7925	12.7189	0.398066	0.625246
12.793	12.7185	0.400586	0.631526
12.7935	12.718	0.398158	0.632493
12.7939	12.7175	0.397904	0.63214
12.7944	12.7171	0.398403	0.627949
12.7949	12.7166	0.398101	0.622851
12.7954	12.7161	0.39822	0.616562
12.7958	12.7156	0.398009	0.603149
12.7963	12.7151	0.397653	0.590446
12.7968	12.7147	0.39843	0.580294
12.7972	12.7142	0.399082	0.570175
12.7977	12.7137	0.397776	0.562108
12.7982	12.7132	0.397848	0.549826
12.7987	12.7128	0.398913	0.539395
12.7991	12.7123	0.397528	0.528879
12.7996	12.7118	0.397743	0.516934
12.8001	12.7114	0.397913	0.504584
12.8006	12.7109	0.397416	0.489508
12.801	12.7104	0.397011	0.474692
12.8015	12.7099	0.397607	0.459554
12.802	12.7095	0.397663	0.443844
12.8024	12.709	0.398554	0.426626
12.8029	12.7085	0.396462	0.410006
12.8034	12.7081	0.39621	0.391728
12.8039	12.7076	0.398152	0.377052
12.8043	12.7071	0.397712	0.363654
12.8048	12.7066	0.398238	0.348946
12.8053	12.7062	0.395524	0.333848
12.8057	12.7057	0.397912	0.320769
12.8062	12.7052	0.398478	0.310103
12.8067	12.7047	0.396501	0.301075
12.8072	12.7042	0.397779	0.293799
12.8076	12.7038	0.396855	0.288695
12.8081	12.7033	0.395561	0.280745
12.8086	12.7028	0.396494	0.277447
12.8091	12.7024	0.396791	0.278859
12.8095	12.7019	0.397002	0.280456
12.81	12.7014	0.39549	0.282439
12.8105	12.7009	0.396459	0.284117
12.8109	12.7005	0.397968	0.286857
12.8114	12.7	0.396841	0.292052
12.8119	12.6995	0.396262	0.297965
12.8124	12.6991	0.395341	0.30284
12.8128	12.6986	0.395812	0.305263
12.8133	12.6981	0.39629	0.308899
12.8138	12.6977	0.397087	0.313016
12.8142	12.6972	0.396675	0.317707
12.8147	12.6967	0.394821	0.317905
12.8152	12.6962	0.394143	0.31904
12.8157	12.6958	0.394904	0.319361
12.8161	12.6953	0.394451	0.320662
12.8166	12.6948	0.398103	0.320446
12.8171	12.6943	0.3952	0.317174
12.8176	12.6939	0.392369	0.310871
12.818	12.6934	0.395306	0.307573
12.8185	12.6929	0.396906	0.304067
12.819	12.6925	0.394821	0.299108
12.8194	12.692	0.393407	0.292385
12.8199	12.6915	0.393904	0.284591
12.8204	12.6911	0.393996	0.281048
12.8209	12.6906	0.394602	0.278191
12.8213	12.6901	0.394708	0.274766
12.8218	12.6897	0.39371	0.271945
12.8223	12.6892	0.393445	0.268563
12.8227	12.6887	0.395244	0.270663
12.8232	12.6883	0.392636	0.27252
12.8237	12.6878	0.394329	0.276032
12.8242	12.6873	0.391367	0.277573
12.8246	12.6868	0.391912	0.280807
12.8251	12.6864	0.391775	0.285677
12.8256	12.6859	0.392332	0.289743
12.8261	12.6854	0.390962	0.294772
12.8265	12.6849	0.390849	0.299258
12.827	12.6844	0.389121	0.299798
12.8275	12.684	0.391246	0.303655
12.8279	12.6835	0.39218	0.306832
12.8284	12.683	0.389698	0.310669
12.8289	12.6826	0.389311	0.314037
12.8294	12.6821	0.389468	0.314233
12.8298	12.6816	0.390968	0.317257
12.8303	12.6812	0.391419	0.322305
12.8308	12.6807	0.391547	0.326133
12.8312	12.6802	0.391675	0.328997
12.8317	12.6797	0.391023	0.329265
12.8322	12.6793	0.392673	0.330671
12.8327	12.6788	0.390388	0.335679
12.8331	12.6783	0.391622	0.337127
12.8336	12.6779	0.390474	0.337324
12.8341	12.6774	0.391519	0.336481
12.8346	12.6769	0.392822	0.337028
12.835	12.6764	0.392067	0.336795
12.8355	12.6759	0.392064	0.339645
12.836	12.6755	0.391137	0.336448
12.8364	12.675	0.388691	0.33357
12.8369	12.6745	0.392433	0.334245
12.8374	12.674	0.3909	0.332677
12.8379	12.6735	0.390388	0.334053
12.8383	12.6731	0.390025	0.331984
12.8388	12.6726	0.389569	0.328311
12.8393	12.6722	0.392075	0.328003
12.8397	12.6717	0.390618	0.327579
12.8402	12.6712	0.389601	0.32574
12.8407	12.6707	0.389791	0.323261
12.8412	12.6703	0.389182	0.319186
12.8416	12.6698	0.395019	0.320292
12.8421	12.6693	0.394142	0.320096
12.8426	12.6689	0.390018	0.316006
12.8431	12.6684	0.389298	0.311671
12.8435	12.6679	0.389683	0.307049
12.844	12.6675	0.391499	0.3057
12.8445	12.667	0.389246	0.30412
12.8449	12.6665	0.388826	0.30257
12.8454	12.666	0.38905	0.300022
12.8459	12.6656	0.388577	0.294864
12.8464	12.6651	0.389472	0.292564
12.8468	12.6646	0.390035	0.293491
12.8473	12.6641	0.389151	0.290471
12.8478	12.6637	0.390482	0.289095
12.8482	12.6632	0.388681	0.283407
12.8487	12.6627	0.38923	0.282843
12.8492	12.6623	0.388931	0.281186
12.8497	12.6618	0.387323	0.281116
12.8501	12.6613	0.388658	0.277549
12.8506	12.6609	0.387291	0.273877
12.8511	12.6604	0.389939	0.273161
12.8516	12.6599	0.389485	0.272506
12.852	12.6594	0.387312	0.271952
12.8525	12.659	0.387936	0.270732
12.853	12.6585	0.386649	0.26849
12.8534	12.6581	0.388515	0.267051
12.8539	12.6576	0.389457	0.267943
12.8544	12.6571	0.389779	0.267042
12.8549	12.6566	0.389575	0.266997
12.8553	12.6561	0.38874	0.267893
12.8558	12.6557	0.390178	0.268105
12.8563	12.6552	0.391169	0.27099
12.8567	12.6547	0.389208	0.271664
12.8572	12.6542	0.388594	0.272803
12.8577	12.6537	0.388918	0.273491
12.8582	12.6533	0.391015	0.276449
12.8586	12.6528	0.390151	0.280139
12.8591	12.6523	0.390647	0.28226
12.8596	12.6519	0.390819	0.283601
12.8601	12.6514	0.390339	0.284801
12.8605	12.6509	0.391322	0.288004
12.861	12.6505	0.391254	0.292816
12.8615	12.65	0.390855	0.294714
12.8619	12.6495	0.390518	0.296617
12.8624	12.649	0.38964	0.297937
12.8629	12.6486	0.39153	0.300694
12.8634	12.6481	0.390452	0.304129
12.8638	12.6476	0.388574	0.304797
12.8643	12.6471	0.389415	0.306397
12.8648	12.6467	0.38869	0.306139
12.8652	12.6462	0.389709	0.307392
12.8657	12.6457	0.387115	0.30982
12.8662	12.6452	0.386398	0.310745
12.8667	12.6447	0.38647	0.311887
12.8671	12.6443	0.388859	0.311228
12.8676	12.6438	0.389947	0.313718
12.8681	12.6433	0.388829	0.316147
12.8686	12.6429	0.389496	0.318058
12.869	12.6424	0.3896	0.317923
12.8695	12.642	0.390479	0.317656
12.87	12.6415	0.392188	0.317988
12.8704	12.641	0.392812	0.319385
12.8709	12.6405	0.390581	0.319455
12.8714	12.6401	0.390097	0.31851
12.8719	12.6396	0.392239	0.317238
12.8723	12.6391	0.391611	0.317614
12.8728	12.6387	0.3923	0.319508
12.8733	12.6382	0.389073	0.318528
12.8737	12.6377	0.39149	0.315348
12.8742	12.6373	0.391419	0.314535
12.8747	12.6368	0.391795	0.313849
12.8752	12.6363	0.393359	0.315943
12.8756	12.6358	0.391011	0.314867
12.8761	12.6354	0.39018	0.312101
12.8766	12.6349	0.391975	0.312227
12.8771	12.6344	0.3928	0.312258
12.8775	12.6339	0.391606	0.31279
12.878	12.6335	0.389476	0.31235
12.8785	12.633	0.390349	0.310131
12.8789	12.6325	0.389876	0.309657
12.8794	12.6321	0.391345	0.311123
12.8799	12.6316	0.392436	0.312188
12.8804	12.6311	0.391508	0.312171
12.8808	12.6306	0.391396	0.310531
12.8813	12.6302	0.390909	0.311028
12.8818	12.6297	0.39339	0.312692
12.8822	12.6292	0.392012	0.313525
12.8827	12.6288	0.391408	0.31366
12.8832	12.6283	0.39131	0.312179
12.8837	12.6278	0.391482	0.311787
12.8841	12.6274	0.392314	0.31307
12.8846	12.6269	0.391084	0.314395
12.8851	12.6264	0.389824	0.313846
12.8856	12.6259	0.38941	0.311303
12.886	12.6254	0.390559	0.309414
12.8865	12.6249	0.391846	0.309824
12.887	12.6245	0.391407	0.310193
12.8874	12.624	0.390914	0.311157
12.8879	12.6235	0.389805	0.306503
12.8884	12.6231	0.389112	0.30712
12.8889	12.6226	0.391441	0.306033
12.8893	12.6221	0.39242	0.306891
12.8898	12.6217	0.389796	0.307109
12.8903	12.6212	0.38966	0.303579
12.8907	12.6207	0.390494	0.302332
12.8912	12.6202	0.390158	0.303047
12.8917	12.6197	0.390309	0.306235
12.8922	12.6193	0.389808	0.305469
12.8926	12.6188	0.390418	0.303761
12.8931	12.6183	0.389751	0.302024
12.8936	12.6179	0.391534	0.303324
12.8941	12.6174	0.39098	0.304059
12.8945	12.6169	0.388467	0.304469
12.895	12.6164	0.388899	0.301743
12.8955	12.616	0.39076	0.302489
12.8959	12.6155	0.391145	0.302793
12.8964	12.615	0.390398	0.303896
12.8969	12.6145	0.389076	0.302522
12.8974	12.6141	0.390309	0.30177
12.8978	12.6136	0.390102	0.300628
12.8983	12.6131	0.390085	0.299985
12.8988	12.6127	0.391907	0.301892
