# 1304     AichiSR QXAFS
# Start     : 8.9544
# End       : 9.0544
# Dir       : Forward
# Points    : 300
# ScanTime  : 1.01549
# Date      : 13.04.23 22:23
# Ring Cur. : 25.5[mA]
12.7557	12.7557	0.403427	1.22482
12.7562	12.7552	0.401843	1.22302
12.7566	12.7548	0.401035	1.22543
12.7571	12.7543	0.401493	1.22937
12.7576	12.7538	0.401782	1.22521
12.7581	12.7533	0.402458	1.22268
12.7585	12.7529	0.402733	1.22835
12.759	12.7524	0.402843	1.22835
12.7595	12.752	0.404152	1.22876
12.7599	12.7515	0.401661	1.22253
12.7604	12.751	0.402742	1.22428
12.7609	12.7505	0.401541	1.2236
12.7614	12.7501	0.40285	1.22754
12.7618	12.7496	0.40195	1.22529
12.7623	12.7491	0.401524	1.22482
12.7628	12.7487	0.404318	1.22458
12.7632	12.7482	0.402501	1.22536
12.7637	12.7478	0.401996	1.22637
12.7642	12.7473	0.401375	1.22493
12.7647	12.7468	0.402217	1.22504
12.7651	12.7463	0.403488	1.2208
12.7656	12.7459	0.402268	1.22446
12.7661	12.7454	0.401786	1.226
12.7666	12.7449	0.402562	1.22386
12.767	12.7444	0.401404	1.22185
12.7675	12.7439	0.402619	1.21698
12.768	12.7435	0.40285	1.22013
12.7684	12.743	0.402902	1.22337
12.7689	12.7425	0.401731	1.22429
12.7694	12.7421	0.400843	1.21972
12.7699	12.7416	0.403645	1.21933
12.7703	12.7411	0.402641	1.21958
12.7708	12.7407	0.401553	1.21996
12.7713	12.7402	0.402482	1.21962
12.7717	12.7397	0.402602	1.21541
12.7722	12.7392	0.403163	1.21452
12.7727	12.7388	0.402641	1.21706
12.7732	12.7383	0.402243	1.21656
12.7736	12.7378	0.403203	1.21674
12.7741	12.7374	0.40086	1.21306
12.7746	12.7369	0.403791	1.21509
12.7751	12.7364	0.40328	1.21111
12.7755	12.7359	0.401228	1.2113
12.776	12.7354	0.401555	1.20787
12.7765	12.735	0.401056	1.20538
12.7769	12.7345	0.402908	1.20509
12.7774	12.734	0.400156	1.20687
12.7779	12.7335	0.401623	1.20451
12.7784	12.7331	0.400964	1.20032
12.7788	12.7326	0.40042	1.1979
12.7793	12.7321	0.402828	1.19608
12.7798	12.7317	0.402413	1.19217
12.7802	12.7312	0.400456	1.19391
12.7807	12.7307	0.401057	1.18932
12.7812	12.7302	0.400072	1.18301
12.7817	12.7298	0.401273	1.17732
12.7821	12.7293	0.400597	1.17751
12.7826	12.7288	0.399557	1.17215
12.7831	12.7284	0.400539	1.16383
12.7836	12.7279	0.39981	1.15542
12.784	12.7274	0.400156	1.14571
12.7845	12.7269	0.398863	1.13067
12.785	12.7265	0.397334	1.11712
12.7854	12.726	0.398241	1.09609
12.7859	12.7255	0.395512	1.06
12.7864	12.725	0.396554	1.02299
12.7869	12.7246	0.395615	0.983977
12.7873	12.7241	0.395563	0.928331
12.7878	12.7236	0.396237	0.866675
12.7883	12.7231	0.396996	0.801871
12.7887	12.7227	0.400547	0.748643
12.7892	12.7222	0.399422	0.700968
12.7897	12.7218	0.39948	0.666283
12.7902	12.7213	0.398836	0.639887
12.7906	12.7208	0.398277	0.624837
12.7911	12.7203	0.400642	0.61935
12.7916	12.7199	0.400472	0.619186
12.7921	12.7194	0.39991	0.622741
12.7925	12.7189	0.398497	0.624711
12.793	12.7185	0.398035	0.629125
12.7935	12.718	0.400022	0.633426
12.7939	12.7175	0.40049	0.637096
12.7944	12.7171	0.398136	0.632574
12.7949	12.7166	0.398682	0.623627
12.7954	12.7161	0.397649	0.615177
12.7958	12.7156	0.398702	0.604361
12.7963	12.7151	0.398678	0.593973
12.7968	12.7147	0.399036	0.583742
12.7972	12.7142	0.399227	0.570797
12.7977	12.7137	0.398894	0.559841
12.7982	12.7132	0.399509	0.550445
12.7987	12.7128	0.398962	0.542278
12.7991	12.7123	0.398141	0.529542
12.7996	12.7119	0.396897	0.517702
12.8001	12.7114	0.399332	0.502116
12.8006	12.7109	0.399474	0.489517
12.801	12.7104	0.399423	0.478839
12.8015	12.71	0.39803	0.461932
12.802	12.7095	0.397189	0.445145
12.8024	12.709	0.398791	0.426891
12.8029	12.7086	0.39959	0.411116
12.8034	12.7081	0.397593	0.395902
12.8039	12.7076	0.397934	0.379901
12.8043	12.7071	0.399399	0.36274
12.8048	12.7066	0.398081	0.346478
12.8053	12.7062	0.398604	0.334059
12.8057	12.7057	0.398158	0.321452
12.8062	12.7052	0.397037	0.312932
12.8067	12.7047	0.396955	0.301633
12.8072	12.7042	0.397795	0.292007
12.8076	12.7038	0.39867	0.287194
12.8081	12.7033	0.397493	0.283663
12.8086	12.7028	0.396798	0.281427
12.8091	12.7024	0.398043	0.27941
12.8095	12.7019	0.396447	0.278896
12.81	12.7014	0.396649	0.280946
12.8105	12.701	0.398494	0.286437
12.8109	12.7005	0.395525	0.289426
12.8114	12.7	0.396001	0.292863
12.8119	12.6995	0.397058	0.295721
12.8124	12.6991	0.396334	0.300442
12.8128	12.6986	0.397466	0.307397
12.8133	12.6982	0.395134	0.310126
12.8138	12.6977	0.397835	0.314196
12.8142	12.6972	0.396996	0.315695
12.8147	12.6967	0.396065	0.318745
12.8152	12.6963	0.398288	0.322071
12.8157	12.6958	0.39462	0.321928
12.8161	12.6953	0.396963	0.320261
12.8166	12.6948	0.396396	0.319452
12.8171	12.6943	0.397881	0.317189
12.8176	12.6939	0.395536	0.314523
12.818	12.6934	0.39464	0.308845
12.8185	12.6929	0.39705	0.304555
12.819	12.6925	0.396133	0.297244
12.8194	12.692	0.395211	0.291606
12.8199	12.6916	0.395228	0.287772
12.8204	12.6911	0.394324	0.282702
12.8209	12.6906	0.392869	0.277332
12.8213	12.6901	0.395623	0.273324
12.8218	12.6897	0.394781	0.271936
12.8223	12.6892	0.394159	0.271116
12.8227	12.6887	0.394815	0.273043
12.8232	12.6883	0.39405	0.273194
12.8237	12.6878	0.394521	0.275564
12.8242	12.6873	0.394218	0.279046
12.8246	12.6868	0.394974	0.285162
12.8251	12.6864	0.392764	0.287776
12.8256	12.6859	0.391631	0.290064
12.8261	12.6854	0.393353	0.293913
12.8265	12.6849	0.393554	0.298072
12.827	12.6844	0.390816	0.304153
12.8275	12.684	0.391208	0.306377
12.8279	12.6835	0.392333	0.307596
12.8284	12.683	0.392766	0.310714
12.8289	12.6826	0.392686	0.313922
12.8294	12.6821	0.392761	0.318766
12.8298	12.6816	0.391441	0.320197
12.8303	12.6812	0.39216	0.323752
12.8308	12.6807	0.394649	0.326844
12.8312	12.6802	0.392691	0.329646
12.8317	12.6797	0.395618	0.332823
12.8322	12.6793	0.393071	0.336327
12.8327	12.6788	0.393566	0.336154
12.8331	12.6783	0.394276	0.336986
12.8336	12.6779	0.394366	0.338842
12.8341	12.6774	0.393387	0.340406
12.8346	12.6769	0.39256	0.340684
12.835	12.6764	0.392964	0.339244
12.8355	12.6759	0.394264	0.337801
12.836	12.6755	0.3932	0.337342
12.8364	12.675	0.392735	0.338227
12.8369	12.6745	0.390991	0.337084
12.8374	12.674	0.393039	0.334417
12.8379	12.6736	0.393279	0.334299
12.8383	12.6731	0.393398	0.333802
12.8388	12.6726	0.392564	0.332712
12.8393	12.6722	0.391896	0.33117
12.8397	12.6717	0.390338	0.328088
12.8402	12.6712	0.392466	0.325508
12.8407	12.6707	0.391627	0.324791
12.8412	12.6703	0.392548	0.323301
12.8416	12.6698	0.390439	0.321304
12.8421	12.6693	0.391064	0.317822
12.8426	12.6689	0.39366	0.316127
12.8431	12.6684	0.391375	0.315446
12.8435	12.668	0.393129	0.312736
12.844	12.6675	0.392415	0.308462
12.8445	12.667	0.389473	0.30438
12.8449	12.6665	0.392106	0.301178
12.8454	12.6661	0.391813	0.300422
12.8459	12.6656	0.390326	0.297338
12.8464	12.6651	0.389404	0.295768
12.8468	12.6646	0.390547	0.291527
12.8473	12.6641	0.390407	0.290149
12.8478	12.6637	0.389507	0.288129
12.8482	12.6632	0.390276	0.288151
12.8487	12.6627	0.389202	0.285487
12.8492	12.6623	0.389076	0.282109
12.8497	12.6618	0.391435	0.279545
12.8501	12.6614	0.389265	0.278243
12.8506	12.6609	0.389642	0.276649
12.8511	12.6604	0.389329	0.274509
12.8516	12.6599	0.389866	0.2708
12.852	12.6595	0.389928	0.270859
12.8525	12.659	0.389894	0.270917
12.853	12.6585	0.3891	0.270326
12.8534	12.6581	0.386626	0.267051
12.8539	12.6576	0.387576	0.266628
12.8544	12.6571	0.38815	0.265113
12.8549	12.6566	0.387284	0.267172
12.8553	12.6561	0.387555	0.269675
12.8558	12.6557	0.387214	0.268344
12.8563	12.6552	0.38722	0.268902
12.8567	12.6547	0.390859	0.270361
12.8572	12.6542	0.387441	0.272248
12.8577	12.6538	0.389324	0.275817
12.8582	12.6533	0.388172	0.275114
12.8586	12.6528	0.388007	0.276528
12.8591	12.6524	0.390109	0.279677
12.8596	12.6519	0.392977	0.28582
12.8601	12.6514	0.387808	0.286284
12.8605	12.6509	0.386253	0.287213
12.861	12.6505	0.387261	0.287919
12.8615	12.65	0.389872	0.290663
12.8619	12.6495	0.388473	0.294566
12.8624	12.6491	0.387203	0.297349
12.8629	12.6486	0.386965	0.298107
12.8634	12.6481	0.385628	0.299228
12.8638	12.6476	0.386601	0.301792
12.8643	12.6472	0.385156	0.303609
12.8648	12.6467	0.384704	0.30549
12.8652	12.6462	0.382738	0.305073
12.8657	12.6457	0.382684	0.304747
12.8662	12.6452	0.38402	0.306476
12.8667	12.6448	0.384219	0.307927
12.8671	12.6443	0.383426	0.309349
12.8676	12.6438	0.384397	0.311745
12.8681	12.6433	0.383219	0.311622
12.8686	12.6429	0.386126	0.31348
12.869	12.6424	0.387011	0.316002
12.8695	12.642	0.386824	0.316029
12.87	12.6415	0.386217	0.314989
12.8704	12.641	0.385958	0.313658
12.8709	12.6405	0.387542	0.315083
12.8714	12.6401	0.387776	0.315071
12.8719	12.6396	0.385831	0.316362
12.8723	12.6391	0.38884	0.31488
12.8728	12.6387	0.386758	0.313508
12.8733	12.6382	0.38925	0.313424
12.8737	12.6377	0.388938	0.315644
12.8742	12.6373	0.388369	0.313147
12.8747	12.6368	0.386276	0.312644
12.8752	12.6363	0.387701	0.310394
12.8756	12.6358	0.389298	0.309917
12.8761	12.6354	0.387477	0.311395
12.8766	12.6349	0.387977	0.312519
12.8771	12.6344	0.386861	0.311191
12.8775	12.6339	0.388502	0.30838
12.878	12.6335	0.388919	0.308869
12.8785	12.633	0.39051	0.309638
12.8789	12.6325	0.387446	0.309521
12.8794	12.6321	0.38797	0.308818
12.8799	12.6316	0.388007	0.30809
12.8804	12.6311	0.389153	0.309498
12.8808	12.6306	0.387581	0.310958
12.8813	12.6302	0.387687	0.31099
12.8818	12.6297	0.388443	0.310905
12.8822	12.6292	0.386884	0.309165
12.8827	12.6288	0.390705	0.309969
12.8832	12.6283	0.389888	0.312384
12.8837	12.6278	0.387952	0.310559
12.8841	12.6274	0.387627	0.310944
12.8846	12.6269	0.389626	0.309988
12.8851	12.6264	0.389081	0.30865
12.8856	12.6259	0.390052	0.310006
12.886	12.6254	0.388815	0.311513
12.8865	12.625	0.38784	0.308025
12.887	12.6245	0.389255	0.30707
12.8874	12.624	0.389942	0.307005
12.8879	12.6235	0.388454	0.307142
12.8884	12.6231	0.387346	0.306654
12.8889	12.6226	0.389451	0.30427
12.8893	12.6221	0.388481	0.303969
12.8898	12.6217	0.390449	0.303274
12.8903	12.6212	0.388745	0.303848
12.8907	12.6207	0.388561	0.304488
12.8912	12.6202	0.388795	0.302811
12.8917	12.6198	0.389038	0.301017
12.8922	12.6193	0.389809	0.303387
12.8926	12.6188	0.391231	0.304163
12.8931	12.6184	0.387223	0.303138
12.8936	12.6179	0.388194	0.302221
12.8941	12.6174	0.388435	0.301126
12.8945	12.6169	0.388564	0.302323
12.895	12.6165	0.388352	0.302743
12.8955	12.616	0.387755	0.302467
12.8959	12.6155	0.388393	0.301716
12.8964	12.615	0.388664	0.300648
12.8969	12.6145	0.390144	0.300769
12.8974	12.6141	0.389214	0.302623
12.8978	12.6136	0.387521	0.301108
12.8983	12.6131	0.388853	0.299575
12.8988	12.6127	0.389269	0.297317
