# 1304     AichiSR QXAFS
# Start     : 8.9544
# End       : 9.0544
# Dir       : Forward
# Points    : 300
# ScanTime  : 1.01549
# Date      : 13.04.23 22:31
# Ring Cur. : 25.7[mA]
12.7557	12.7558	0.405546	1.23309
12.7562	12.7553	0.405014	1.23434
12.7566	12.7548	0.405145	1.2352
12.7571	12.7543	0.402867	1.2355
12.7576	12.7539	0.404448	1.23285
12.7581	12.7534	0.405263	1.22915
12.7585	12.7529	0.405327	1.23325
12.759	12.7525	0.403831	1.23591
12.7595	12.752	0.402964	1.23245
12.7599	12.7516	0.403285	1.22897
12.7604	12.7511	0.405053	1.2317
12.7609	12.7506	0.404565	1.23125
12.7614	12.7501	0.403804	1.23128
12.7618	12.7497	0.403201	1.22992
12.7623	12.7492	0.403117	1.22801
12.7628	12.7487	0.403523	1.22817
12.7632	12.7483	0.404703	1.22873
12.7637	12.7478	0.404199	1.22914
12.7642	12.7473	0.402461	1.23039
12.7647	12.7469	0.403001	1.22622
12.7651	12.7464	0.403933	1.22757
12.7656	12.7459	0.40389	1.22954
12.7661	12.7454	0.403981	1.23047
12.7666	12.745	0.402765	1.22605
12.767	12.7445	0.402379	1.22165
12.7675	12.744	0.403717	1.22059
12.768	12.7435	0.403014	1.22473
12.7684	12.7431	0.40213	1.22411
12.7689	12.7426	0.401845	1.22371
12.7694	12.7421	0.402038	1.21997
12.7699	12.7417	0.404393	1.22013
12.7703	12.7412	0.403109	1.22014
12.7708	12.7407	0.402519	1.22144
12.7713	12.7402	0.402354	1.22097
12.7717	12.7398	0.401446	1.2155
12.7722	12.7393	0.403576	1.2178
12.7727	12.7388	0.402853	1.2149
12.7732	12.7384	0.402006	1.21924
12.7736	12.7379	0.401388	1.21655
12.7741	12.7374	0.40107	1.21387
12.7746	12.7369	0.402857	1.21218
12.7751	12.7365	0.401455	1.21178
12.7755	12.736	0.401596	1.21309
12.776	12.7355	0.400628	1.20953
12.7765	12.735	0.401458	1.20494
12.7769	12.7345	0.401327	1.20317
12.7774	12.7341	0.401567	1.20229
12.7779	12.7336	0.401619	1.2048
12.7784	12.7331	0.399778	1.19821
12.7788	12.7327	0.399461	1.19728
12.7793	12.7322	0.401798	1.19402
12.7798	12.7317	0.401251	1.19172
12.7802	12.7312	0.400872	1.19278
12.7807	12.7308	0.398594	1.18695
12.7812	12.7303	0.399609	1.17993
12.7817	12.7298	0.400938	1.17785
12.7821	12.7294	0.398377	1.17442
12.7826	12.7289	0.398983	1.16941
12.7831	12.7284	0.398385	1.16088
12.7836	12.7279	0.397951	1.14841
12.784	12.7275	0.39988	1.14215
12.7845	12.727	0.399049	1.1343
12.785	12.7265	0.396586	1.11753
12.7854	12.726	0.395898	1.09616
12.7859	12.7256	0.393958	1.06467
12.7864	12.7251	0.393872	1.02836
12.7869	12.7246	0.392699	0.986482
12.7873	12.7241	0.39163	0.93254
12.7878	12.7237	0.392634	0.870309
12.7883	12.7232	0.393998	0.802096
12.7887	12.7227	0.398146	0.745679
12.7892	12.7223	0.396647	0.699738
12.7897	12.7218	0.397543	0.665312
12.7902	12.7214	0.397679	0.638052
12.7906	12.7209	0.39659	0.620766
12.7911	12.7204	0.398387	0.614928
12.7916	12.7199	0.397284	0.615024
12.7921	12.7195	0.396178	0.618717
12.7925	12.719	0.3968	0.621059
12.793	12.7185	0.395547	0.622007
12.7935	12.7181	0.397431	0.629616
12.7939	12.7176	0.396992	0.63156
12.7944	12.7171	0.396217	0.62916
12.7949	12.7167	0.395593	0.623522
12.7954	12.7162	0.396591	0.61144
12.7958	12.7157	0.396325	0.60212
12.7963	12.7152	0.397319	0.590565
12.7968	12.7147	0.396232	0.581497
12.7972	12.7143	0.395321	0.568343
12.7977	12.7138	0.394818	0.558141
12.7982	12.7133	0.39879	0.553426
12.7987	12.7128	0.39983	0.545927
12.7991	12.7124	0.39512	0.529622
12.7996	12.7119	0.396707	0.516262
12.8001	12.7115	0.395533	0.502767
12.8006	12.711	0.395045	0.487881
12.801	12.7105	0.397138	0.477737
12.8015	12.71	0.395646	0.462503
12.802	12.7095	0.396271	0.443823
12.8024	12.7091	0.395677	0.427912
12.8029	12.7086	0.39614	0.410391
12.8034	12.7082	0.395545	0.394564
12.8039	12.7077	0.39479	0.378361
12.8043	12.7072	0.395141	0.361265
12.8048	12.7067	0.394492	0.344976
12.8053	12.7062	0.395392	0.332586
12.8057	12.7058	0.395638	0.323501
12.8062	12.7053	0.393605	0.312977
12.8067	12.7048	0.394656	0.300194
12.8072	12.7043	0.395481	0.291211
12.8076	12.7038	0.395782	0.285213
12.8081	12.7034	0.394665	0.282609
12.8086	12.7029	0.393919	0.279824
12.8091	12.7024	0.395663	0.278653
12.8095	12.702	0.39624	0.276511
12.81	12.7015	0.395784	0.280453
12.8105	12.701	0.396861	0.284833
12.8109	12.7005	0.395181	0.288922
12.8114	12.7001	0.395836	0.290325
12.8119	12.6996	0.395871	0.295178
12.8124	12.6991	0.397046	0.300773
12.8128	12.6987	0.396668	0.305654
12.8133	12.6982	0.396296	0.311156
12.8138	12.6978	0.395495	0.31356
12.8142	12.6973	0.395771	0.315445
12.8147	12.6968	0.396985	0.318466
12.8152	12.6963	0.398533	0.32323
12.8157	12.6958	0.395201	0.322937
12.8161	12.6954	0.394647	0.321954
12.8166	12.6949	0.397258	0.320084
12.8171	12.6944	0.397141	0.318671
12.8176	12.6939	0.398799	0.316413
12.818	12.6935	0.396315	0.313032
12.8185	12.693	0.39533	0.305556
12.819	12.6925	0.396997	0.299606
12.8194	12.6921	0.3978	0.294241
12.8199	12.6916	0.399089	0.291337
12.8204	12.6911	0.396655	0.284939
12.8209	12.6907	0.395989	0.279159
12.8213	12.6902	0.3982	0.274652
12.8218	12.6897	0.396922	0.273094
12.8223	12.6893	0.397029	0.27436
12.8227	12.6888	0.397024	0.274403
12.8232	12.6883	0.397037	0.274416
12.8237	12.6879	0.398074	0.276545
12.8242	12.6874	0.399271	0.280135
12.8246	12.6869	0.397579	0.285924
12.8251	12.6864	0.395221	0.289883
12.8256	12.686	0.394905	0.291452
12.8261	12.6855	0.395377	0.295721
12.8265	12.685	0.397557	0.301437
12.827	12.6845	0.397096	0.305861
12.8275	12.684	0.394831	0.309195
12.8279	12.6836	0.394404	0.310802
12.8284	12.6831	0.395203	0.313542
12.8289	12.6826	0.396045	0.316011
12.8294	12.6822	0.397992	0.321316
12.8298	12.6817	0.397428	0.324411
12.8303	12.6812	0.397082	0.325561
12.8308	12.6807	0.397845	0.32806
12.8312	12.6803	0.39802	0.332416
12.8317	12.6798	0.398303	0.336446
12.8322	12.6793	0.3964	0.337986
12.8327	12.6789	0.397982	0.340633
12.8331	12.6784	0.399376	0.339821
12.8336	12.6779	0.398373	0.342824
12.8341	12.6774	0.398379	0.34506
12.8346	12.677	0.397252	0.345015
12.835	12.6765	0.39892	0.343806
12.8355	12.676	0.399036	0.342045
12.836	12.6755	0.39875	0.344083
12.8364	12.675	0.400044	0.343823
12.8369	12.6746	0.397582	0.341844
12.8374	12.6741	0.397783	0.339541
12.8379	12.6736	0.399237	0.337255
12.8383	12.6731	0.399139	0.337747
12.8388	12.6727	0.39897	0.339054
12.8393	12.6722	0.399437	0.336381
12.8397	12.6718	0.397871	0.334613
12.8402	12.6713	0.399864	0.331115
12.8407	12.6708	0.399186	0.332095
12.8412	12.6703	0.398825	0.3295
12.8416	12.6699	0.397918	0.327089
12.8421	12.6694	0.39784	0.322472
12.8426	12.6689	0.399059	0.320705
12.8431	12.6685	0.398642	0.31769
12.8435	12.668	0.398621	0.318376
12.844	12.6675	0.398397	0.31538
12.8445	12.6671	0.398698	0.31048
12.8449	12.6666	0.399442	0.307419
12.8454	12.6661	0.398682	0.306252
12.8459	12.6656	0.398788	0.304609
12.8464	12.6652	0.397588	0.302005
12.8468	12.6647	0.397136	0.298307
12.8473	12.6642	0.398768	0.29624
12.8478	12.6637	0.398628	0.293957
12.8482	12.6633	0.398722	0.29478
12.8487	12.6628	0.400083	0.291623
12.8492	12.6623	0.397989	0.286974
12.8497	12.6619	0.400293	0.286905
12.8501	12.6614	0.399906	0.284923
12.8506	12.6609	0.397801	0.284036
12.8511	12.6605	0.398029	0.281798
12.8516	12.66	0.397711	0.277783
12.852	12.6595	0.398318	0.27654
12.8525	12.6591	0.398041	0.277109
12.853	12.6586	0.397445	0.275604
12.8534	12.6581	0.397193	0.273887
12.8539	12.6577	0.396987	0.272789
12.8544	12.6572	0.398535	0.272402
12.8549	12.6567	0.398317	0.272638
12.8553	12.6562	0.396672	0.274467
12.8558	12.6557	0.397392	0.274735
12.8563	12.6553	0.396547	0.275101
12.8567	12.6548	0.398195	0.276069
12.8572	12.6543	0.397892	0.277921
12.8577	12.6538	0.39737	0.281117
12.8582	12.6534	0.397835	0.282209
12.8586	12.6529	0.396022	0.282872
12.8591	12.6524	0.398988	0.286098
12.8596	12.652	0.398376	0.289771
12.8601	12.6515	0.398012	0.292225
12.8605	12.651	0.398408	0.293917
12.861	12.6505	0.39779	0.295295
12.8615	12.65	0.398366	0.298065
12.8619	12.6496	0.397026	0.302273
12.8624	12.6491	0.397849	0.303531
12.8629	12.6486	0.398066	0.306754
12.8634	12.6482	0.394201	0.306158
12.8638	12.6477	0.397233	0.308115
12.8643	12.6472	0.396783	0.31168
12.8648	12.6467	0.394757	0.313751
12.8652	12.6463	0.394523	0.313787
12.8657	12.6458	0.39267	0.312165
12.8662	12.6453	0.39404	0.314174
12.8667	12.6448	0.392371	0.315604
12.8671	12.6443	0.393655	0.318768
12.8676	12.6439	0.393286	0.318964
12.8681	12.6434	0.394279	0.318458
12.8686	12.6429	0.395059	0.32039
12.869	12.6425	0.39694	0.322721
12.8695	12.642	0.396107	0.323094
12.87	12.6416	0.396054	0.322878
12.8704	12.6411	0.39592	0.321502
12.8709	12.6406	0.397311	0.322228
12.8714	12.6401	0.395854	0.323858
12.8719	12.6397	0.395301	0.3223
12.8723	12.6392	0.394692	0.322009
12.8728	12.6387	0.393874	0.318986
12.8733	12.6383	0.397421	0.319265
12.8737	12.6378	0.39563	0.321203
12.8742	12.6373	0.394778	0.32
12.8747	12.6368	0.394159	0.31811
12.8752	12.6364	0.394866	0.315895
12.8756	12.6359	0.395672	0.315884
12.8761	12.6354	0.395712	0.316514
12.8766	12.6349	0.394378	0.316387
12.8771	12.6345	0.394869	0.314922
12.8775	12.634	0.393989	0.312473
12.878	12.6335	0.394003	0.314434
12.8785	12.6331	0.395223	0.314934
12.8789	12.6326	0.394079	0.31443
12.8794	12.6321	0.39348	0.313846
12.8799	12.6317	0.39601	0.311683
12.8804	12.6312	0.39472	0.313471
12.8808	12.6307	0.395117	0.315457
12.8813	12.6302	0.39335	0.314361
12.8818	12.6298	0.39303	0.315314
12.8822	12.6293	0.392992	0.312604
12.8827	12.6288	0.395055	0.313596
12.8832	12.6284	0.395078	0.315401
12.8837	12.6279	0.394132	0.316053
12.8841	12.6274	0.393316	0.314863
12.8846	12.6269	0.391968	0.312386
12.8851	12.6265	0.393661	0.313406
12.8856	12.626	0.394198	0.31358
12.886	12.6255	0.392005	0.314284
12.8865	12.625	0.391992	0.311827
12.887	12.6245	0.391931	0.309899
12.8874	12.6241	0.393235	0.309598
12.8879	12.6236	0.392041	0.310866
12.8884	12.6231	0.390723	0.310018
12.8889	12.6227	0.391134	0.308705
12.8893	12.6222	0.3926	0.305715
12.8898	12.6217	0.393115	0.305543
12.8903	12.6212	0.393609	0.307327
12.8907	12.6208	0.392374	0.306237
12.8912	12.6203	0.392486	0.305391
12.8917	12.6198	0.392205	0.303784
12.8922	12.6193	0.392586	0.303913
12.8926	12.6189	0.391827	0.306356
12.8931	12.6184	0.389872	0.305055
12.8936	12.6179	0.39145	0.304579
12.8941	12.6175	0.390907	0.303744
12.8945	12.617	0.392666	0.302771
12.895	12.6165	0.391121	0.30456
12.8955	12.616	0.39083	0.304892
12.8959	12.6156	0.392	0.303447
12.8964	12.6151	0.390353	0.301799
12.8969	12.6146	0.390486	0.302959
12.8974	12.6141	0.391408	0.304054
12.8978	12.6137	0.389547	0.302702
12.8983	12.6132	0.389804	0.30213
12.8988	12.6127	0.391113	0.300141
