# 1304     AichiSR QXAFS
# Start     : 8.9544
# End       : 9.0544
# Dir       : Backward
# Points    : 300
# ScanTime  : 1.01549
# Date      : 13.04.23 22:20
# Ring Cur. : 25.6[mA]
12.7557	12.6117	0.303039	0.230901
12.7562	12.6122	0.301781	0.230176
12.7566	12.6127	0.30222	0.232944
12.7571	12.6131	0.303559	0.2355
12.7576	12.6136	0.303397	0.233245
12.7581	12.6141	0.302205	0.232755
12.7585	12.6145	0.305496	0.236037
12.759	12.615	0.302318	0.235969
12.7595	12.6155	0.302785	0.237802
12.7599	12.616	0.304708	0.237049
12.7604	12.6164	0.304357	0.235922
12.7609	12.6169	0.303585	0.235798
12.7614	12.6174	0.305159	0.237978
12.7618	12.6179	0.306919	0.240925
12.7623	12.6183	0.302025	0.235717
12.7628	12.6188	0.303646	0.236541
12.7632	12.6193	0.306574	0.237932
12.7637	12.6197	0.305328	0.239567
12.7642	12.6202	0.303768	0.238143
12.7647	12.6207	0.306112	0.238743
12.7651	12.6212	0.304806	0.237914
12.7656	12.6216	0.303332	0.236919
12.7661	12.6221	0.306347	0.240267
12.7666	12.6226	0.30407	0.240722
12.767	12.623	0.305014	0.239506
12.7675	12.6235	0.304697	0.23853
12.768	12.624	0.30645	0.239836
12.7684	12.6245	0.306399	0.241784
12.7689	12.6249	0.303778	0.242054
12.7694	12.6254	0.30527	0.242914
12.7699	12.6259	0.305259	0.242479
12.7703	12.6264	0.305967	0.243326
12.7708	12.6269	0.307455	0.244776
12.7713	12.6273	0.305112	0.247158
12.7717	12.6278	0.30351	0.244659
12.7722	12.6283	0.305102	0.243592
12.7727	12.6288	0.306439	0.245172
12.7732	12.6292	0.305208	0.246998
12.7736	12.6297	0.304408	0.244154
12.7741	12.6301	0.305188	0.244746
12.7746	12.6306	0.30656	0.244912
12.7751	12.6311	0.306118	0.244155
12.7755	12.6316	0.306128	0.246259
12.776	12.632	0.305278	0.244692
12.7765	12.6325	0.306266	0.245161
12.7769	12.633	0.306416	0.244281
12.7774	12.6334	0.308853	0.244948
12.7779	12.6339	0.306557	0.245861
12.7784	12.6344	0.304795	0.246463
12.7788	12.6349	0.307264	0.245064
12.7793	12.6353	0.307749	0.244298
12.7798	12.6358	0.306709	0.245194
12.7802	12.6363	0.309255	0.248806
12.7807	12.6368	0.305988	0.248171
12.7812	12.6372	0.305185	0.246045
12.7817	12.6377	0.307403	0.247825
12.7821	12.6382	0.309073	0.248637
12.7826	12.6386	0.308431	0.250393
12.7831	12.6391	0.307154	0.251825
12.7836	12.6396	0.308654	0.250368
12.784	12.64	0.308598	0.249775
12.7845	12.6405	0.307769	0.250988
12.785	12.641	0.309216	0.252607
12.7854	12.6415	0.306331	0.252246
12.7859	12.6419	0.305433	0.249824
12.7864	12.6424	0.30698	0.25123
12.7869	12.6428	0.308253	0.251712
12.7873	12.6433	0.307264	0.251657
12.7878	12.6438	0.305566	0.249636
12.7883	12.6442	0.305957	0.249604
12.7887	12.6447	0.306944	0.246411
12.7892	12.6452	0.305846	0.24644
12.7897	12.6457	0.306436	0.249733
12.7902	12.6462	0.30606	0.247547
12.7906	12.6466	0.305369	0.244552
12.7911	12.6471	0.307472	0.24345
12.7916	12.6476	0.309079	0.244686
12.7921	12.6481	0.309892	0.243786
12.7925	12.6486	0.306339	0.241156
12.793	12.649	0.307949	0.238636
12.7935	12.6495	0.3101	0.237242
12.7939	12.65	0.309085	0.236611
12.7944	12.6504	0.310257	0.236528
12.7949	12.6509	0.30959	0.234159
12.7954	12.6514	0.307919	0.228442
12.7958	12.6519	0.308872	0.228037
12.7963	12.6523	0.312598	0.229251
12.7968	12.6528	0.311893	0.226844
12.7972	12.6533	0.310725	0.224989
12.7977	12.6537	0.310337	0.22203
12.7982	12.6542	0.313201	0.220478
12.7987	12.6547	0.311107	0.219756
12.7991	12.6552	0.312005	0.220026
12.7996	12.6556	0.311116	0.218587
12.8001	12.6561	0.310163	0.214048
12.8006	12.6566	0.310919	0.214495
12.801	12.6571	0.312574	0.215956
12.8015	12.6576	0.312266	0.214588
12.802	12.658	0.310203	0.215693
12.8024	12.6585	0.311237	0.213569
12.8029	12.659	0.313038	0.214535
12.8034	12.6594	0.310728	0.216545
12.8039	12.6599	0.313587	0.220562
12.8043	12.6604	0.311923	0.218826
12.8048	12.6608	0.313157	0.218718
12.8053	12.6613	0.312786	0.221393
12.8057	12.6618	0.31245	0.222354
12.8062	12.6623	0.312947	0.226016
12.8067	12.6627	0.312505	0.226123
12.8072	12.6632	0.311622	0.225994
12.8076	12.6636	0.312061	0.226136
12.8081	12.6641	0.31357	0.230292
12.8086	12.6646	0.314749	0.233271
12.8091	12.6651	0.312765	0.235452
12.8095	12.6655	0.311765	0.233406
12.81	12.666	0.312801	0.236854
12.8105	12.6665	0.314648	0.240343
12.8109	12.667	0.315089	0.24297
12.8114	12.6674	0.312377	0.244061
12.8119	12.6679	0.313321	0.245377
12.8124	12.6684	0.314	0.24603
12.8128	12.6689	0.31263	0.247892
12.8133	12.6693	0.314503	0.253897
12.8138	12.6698	0.313772	0.254898
12.8142	12.6702	0.312501	0.254148
12.8147	12.6707	0.312821	0.254634
12.8152	12.6712	0.315567	0.261338
12.8157	12.6717	0.314291	0.261668
12.8161	12.6721	0.313188	0.262271
12.8166	12.6726	0.312765	0.262516
12.8171	12.6731	0.31429	0.2643
12.8176	12.6735	0.314096	0.265874
12.818	12.674	0.31506	0.269279
12.8185	12.6745	0.314292	0.26953
12.819	12.675	0.310504	0.266248
12.8194	12.6754	0.314587	0.266832
12.8199	12.6759	0.31588	0.271595
12.8204	12.6764	0.314421	0.272599
12.8209	12.6769	0.312726	0.271043
12.8213	12.6774	0.31452	0.270613
12.8218	12.6778	0.314307	0.269917
12.8223	12.6783	0.31352	0.270684
12.8227	12.6788	0.315373	0.273145
12.8232	12.6792	0.315183	0.27167
12.8237	12.6797	0.313509	0.266655
12.8242	12.6802	0.314748	0.266314
12.8246	12.6807	0.31431	0.266049
12.8251	12.6811	0.314806	0.262939
12.8256	12.6816	0.313384	0.260821
12.8261	12.6821	0.314042	0.257905
12.8265	12.6825	0.314185	0.255299
12.827	12.683	0.312394	0.252678
12.8275	12.6835	0.314357	0.251411
12.8279	12.6839	0.312868	0.249713
12.8284	12.6844	0.310224	0.245427
12.8289	12.6849	0.313553	0.242667
12.8294	12.6854	0.312922	0.241592
12.8298	12.6859	0.313782	0.240053
12.8303	12.6863	0.313577	0.236141
12.8308	12.6868	0.313571	0.232463
12.8312	12.6873	0.316079	0.227988
12.8317	12.6878	0.314536	0.226427
12.8322	12.6883	0.315309	0.224271
12.8327	12.6887	0.315396	0.221794
12.8331	12.6892	0.314047	0.217476
12.8336	12.6896	0.317936	0.217369
12.8341	12.6901	0.318322	0.219489
12.8346	12.6906	0.314788	0.218357
12.835	12.6911	0.314333	0.221568
12.8355	12.6915	0.315574	0.222923
12.836	12.692	0.318492	0.226904
12.8364	12.6925	0.314824	0.229789
12.8369	12.6929	0.315242	0.236893
12.8374	12.6934	0.315182	0.240536
12.8379	12.6938	0.312603	0.242215
12.8383	12.6943	0.316713	0.24734
12.8388	12.6948	0.316207	0.251633
12.8393	12.6953	0.314393	0.254502
12.8397	12.6958	0.313954	0.255437
12.8402	12.6962	0.31658	0.257131
12.8407	12.6967	0.316225	0.254674
12.8412	12.6972	0.312972	0.25355
12.8416	12.6977	0.315432	0.255896
12.8421	12.6981	0.315236	0.252623
12.8426	12.6986	0.313111	0.247312
12.8431	12.6991	0.315544	0.245945
12.8435	12.6995	0.31549	0.243281
12.844	12.7	0.313573	0.23958
12.8445	12.7004	0.314207	0.23502
12.8449	12.7009	0.315388	0.23181
12.8454	12.7014	0.315417	0.228075
12.8459	12.7019	0.314693	0.226126
12.8464	12.7023	0.317496	0.226886
12.8468	12.7028	0.316124	0.223037
12.8473	12.7033	0.315524	0.220488
12.8478	12.7037	0.319818	0.224464
12.8482	12.7042	0.319416	0.227211
12.8487	12.7047	0.316738	0.232028
12.8492	12.7052	0.316508	0.237387
12.8497	12.7057	0.316454	0.243699
12.8501	12.7062	0.318728	0.251856
12.8506	12.7066	0.318222	0.26202
12.8511	12.7071	0.318003	0.272948
12.8516	12.7076	0.319838	0.283325
12.852	12.7081	0.318801	0.293548
12.8525	12.7085	0.321205	0.308493
12.853	12.709	0.321271	0.324017
12.8534	12.7095	0.319534	0.339538
12.8539	12.7099	0.319806	0.351046
12.8544	12.7104	0.321151	0.361954
12.8549	12.7109	0.322234	0.376286
12.8553	12.7114	0.321476	0.387433
12.8558	12.7118	0.319138	0.400322
12.8563	12.7123	0.319606	0.410164
12.8567	12.7128	0.318742	0.420926
12.8572	12.7132	0.322237	0.428219
12.8577	12.7137	0.322042	0.440263
12.8582	12.7142	0.320305	0.449171
12.8586	12.7146	0.319788	0.45576
12.8591	12.7151	0.321162	0.464924
12.8596	12.7156	0.323106	0.472978
12.8601	12.7161	0.321576	0.485186
12.8605	12.7166	0.322064	0.493181
12.861	12.717	0.321154	0.499065
12.8615	12.7175	0.320445	0.50426
12.8619	12.718	0.323774	0.509025
12.8624	12.7185	0.320641	0.512831
12.8629	12.7189	0.318852	0.508894
12.8634	12.7194	0.321165	0.504854
12.8638	12.7198	0.321225	0.501592
12.8643	12.7203	0.321409	0.498274
12.8648	12.7208	0.320533	0.497682
12.8652	12.7213	0.322469	0.501178
12.8657	12.7217	0.320892	0.505757
12.8662	12.7222	0.321491	0.517428
12.8667	12.7227	0.323107	0.541329
12.8671	12.7231	0.322499	0.575731
12.8676	12.7236	0.319417	0.615407
12.8681	12.7241	0.320052	0.662415
12.8686	12.7245	0.319317	0.712589
12.869	12.725	0.317589	0.756859
12.8695	12.7255	0.318502	0.80074
12.87	12.726	0.317431	0.841146
12.8704	12.7264	0.317534	0.862218
12.8709	12.7269	0.31822	0.882928
12.8714	12.7274	0.321874	0.903418
12.8719	12.7279	0.321791	0.916764
12.8723	12.7283	0.321079	0.928384
12.8728	12.7288	0.32228	0.931427
12.8733	12.7293	0.322457	0.940727
12.8737	12.7297	0.323242	0.943783
12.8742	12.7302	0.322136	0.946392
12.8747	12.7307	0.323521	0.956547
12.8752	12.7312	0.324413	0.959062
12.8756	12.7316	0.321432	0.952473
12.8761	12.7321	0.323868	0.957589
12.8766	12.7326	0.32386	0.967656
12.8771	12.733	0.322481	0.966149
12.8775	12.7335	0.321583	0.960137
12.878	12.734	0.325221	0.971186
12.8785	12.7345	0.323947	0.970179
12.8789	12.7349	0.323713	0.972475
12.8794	12.7354	0.324407	0.980067
12.8799	12.7359	0.324996	0.978502
12.8804	12.7364	0.325434	0.978938
12.8808	12.7369	0.325924	0.978689
12.8813	12.7374	0.326164	0.982587
12.8818	12.7378	0.324153	0.985617
12.8822	12.7383	0.325009	0.981143
12.8827	12.7388	0.32643	0.982508
12.8832	12.7392	0.32558	0.981451
12.8837	12.7397	0.324446	0.983628
12.8841	12.7402	0.323863	0.988055
12.8846	12.7406	0.326507	0.989659
12.8851	12.7411	0.326381	0.987978
12.8856	12.7416	0.327531	0.989735
12.886	12.7421	0.327764	0.990082
12.8865	12.7425	0.325617	0.994268
12.887	12.743	0.327089	0.993688
12.8874	12.7435	0.32797	0.995221
12.8879	12.7439	0.327522	0.991687
12.8884	12.7444	0.324837	0.990325
12.8889	12.7449	0.32802	0.99934
12.8893	12.7454	0.328347	0.996921
12.8898	12.7458	0.327845	0.994763
12.8903	12.7463	0.328223	0.996221
12.8907	12.7468	0.329758	1.00093
12.8912	12.7473	0.32761	0.998926
12.8917	12.7477	0.327011	0.995376
12.8922	12.7482	0.328901	1.00288
12.8926	12.7487	0.328833	1.00068
12.8931	12.7491	0.328769	1.00079
12.8936	12.7496	0.329037	1.00458
12.8941	12.7501	0.328182	1.00039
12.8945	12.7505	0.328317	0.998747
12.895	12.751	0.330539	1.00403
12.8955	12.7515	0.330214	1.00519
12.8959	12.752	0.327745	1.00255
12.8964	12.7524	0.32852	1.00084
12.8969	12.7529	0.329759	1.0032
12.8974	12.7533	0.329653	0.998408
12.8978	12.7538	0.326874	1.00009
12.8983	12.7543	0.33038	1.00822
12.8988	12.7548	0.329708	1.00504
