# 1304     AichiSR QXAFS
# Start     : 8.9544
# End       : 9.0544
# Dir       : Forward
# Points    : 300
# ScanTime  : 1.01549
# Date      : 13.04.23 22:28
# Ring Cur. : 25.4[mA]
12.7557	12.7558	0.403286	1.22623
12.7562	12.7553	0.401699	1.22583
12.7566	12.7548	0.401636	1.22733
12.7571	12.7543	0.400294	1.2251
12.7576	12.7539	0.400958	1.2217
12.7581	12.7534	0.402109	1.22091
12.7585	12.7529	0.401293	1.22468
12.759	12.7525	0.401322	1.22441
12.7595	12.752	0.401232	1.22425
12.7599	12.7515	0.400031	1.22089
12.7604	12.7511	0.402519	1.22316
12.7609	12.7506	0.402495	1.22322
12.7614	12.7501	0.39972	1.22257
12.7618	12.7496	0.400271	1.22092
12.7623	12.7492	0.399826	1.21823
12.7628	12.7487	0.401251	1.21924
12.7632	12.7483	0.401906	1.22101
12.7637	12.7478	0.400194	1.22009
12.7642	12.7473	0.399058	1.21722
12.7647	12.7468	0.40059	1.21569
12.7651	12.7464	0.401534	1.21657
12.7656	12.7459	0.400571	1.21567
12.7661	12.7454	0.399854	1.21713
12.7666	12.7449	0.398951	1.21644
12.767	12.7445	0.398656	1.21322
12.7675	12.744	0.401706	1.21783
12.768	12.7435	0.399561	1.21706
12.7684	12.743	0.400041	1.21561
12.7689	12.7426	0.398149	1.21288
12.7694	12.7421	0.398579	1.20909
12.7699	12.7416	0.400694	1.21096
12.7703	12.7412	0.399993	1.2102
12.7708	12.7407	0.399496	1.21012
12.7713	12.7402	0.398206	1.20991
12.7717	12.7397	0.397995	1.20449
12.7722	12.7393	0.400361	1.20708
12.7727	12.7388	0.399813	1.20815
12.7732	12.7384	0.39806	1.20789
12.7736	12.7379	0.398607	1.20624
12.7741	12.7374	0.398285	1.20388
12.7746	12.7369	0.399799	1.20324
12.7751	12.7364	0.399054	1.20464
12.7755	12.736	0.398248	1.203
12.776	12.7355	0.3999	1.19816
12.7765	12.735	0.396704	1.19633
12.7769	12.7345	0.399444	1.19501
12.7774	12.734	0.398544	1.19504
12.7779	12.7336	0.397525	1.19366
12.7784	12.7331	0.397408	1.18636
12.7788	12.7326	0.397851	1.18516
12.7793	12.7322	0.401109	1.18729
12.7798	12.7317	0.398136	1.18643
12.7802	12.7312	0.396566	1.18137
12.7807	12.7307	0.397312	1.17653
12.7812	12.7303	0.396633	1.17266
12.7817	12.7298	0.398426	1.16784
12.7821	12.7293	0.396344	1.16719
12.7826	12.7289	0.396314	1.16025
12.7831	12.7284	0.395233	1.1506
12.7836	12.7279	0.396445	1.14106
12.784	12.7274	0.397258	1.13442
12.7845	12.727	0.395332	1.12324
12.785	12.7265	0.395944	1.10795
12.7854	12.726	0.393216	1.08562
12.7859	12.7255	0.392097	1.05071
12.7864	12.7251	0.391877	1.01512
12.7869	12.7246	0.391718	0.973558
12.7873	12.7241	0.390493	0.917709
12.7878	12.7236	0.389212	0.848863
12.7883	12.7232	0.39424	0.787989
12.7887	12.7227	0.394931	0.736342
12.7892	12.7223	0.39466	0.688897
12.7897	12.7218	0.39209	0.654333
12.7902	12.7213	0.394292	0.63142
12.7906	12.7208	0.395907	0.61544
12.7911	12.7204	0.395244	0.610388
12.7916	12.7199	0.396212	0.612731
12.7921	12.7194	0.394442	0.615362
12.7925	12.719	0.393266	0.620405
12.793	12.7185	0.394596	0.622304
12.7935	12.718	0.394754	0.627111
12.7939	12.7176	0.395432	0.628038
12.7944	12.7171	0.395583	0.626648
12.7949	12.7166	0.39461	0.617768
12.7954	12.7161	0.39333	0.60635
12.7958	12.7157	0.395487	0.596773
12.7963	12.7152	0.397305	0.587734
12.7968	12.7147	0.394263	0.576877
12.7972	12.7142	0.394798	0.564103
12.7977	12.7137	0.393488	0.552779
12.7982	12.7133	0.395921	0.543655
12.7987	12.7128	0.394578	0.536433
12.7991	12.7124	0.392347	0.525373
12.7996	12.7119	0.393435	0.511034
12.8001	12.7114	0.39384	0.496712
12.8006	12.7109	0.39498	0.484165
12.801	12.7105	0.394874	0.471684
12.8015	12.71	0.394135	0.456521
12.802	12.7095	0.395246	0.438811
12.8024	12.7091	0.394309	0.419729
12.8029	12.7086	0.393348	0.405335
12.8034	12.7081	0.395738	0.390068
12.8039	12.7076	0.392643	0.374506
12.8043	12.7072	0.393102	0.356755
12.8048	12.7067	0.392724	0.342115
12.8053	12.7062	0.392891	0.329548
12.8057	12.7057	0.393783	0.320407
12.8062	12.7052	0.392497	0.308526
12.8067	12.7048	0.392849	0.296741
12.8072	12.7043	0.393723	0.288004
12.8076	12.7038	0.394774	0.283232
12.8081	12.7033	0.391606	0.280002
12.8086	12.7029	0.391246	0.27915
12.8091	12.7024	0.392687	0.275416
12.8095	12.7019	0.392724	0.27532
12.81	12.7015	0.3915	0.278491
12.8105	12.701	0.394522	0.282936
12.8109	12.7005	0.391495	0.286078
12.8114	12.7	0.39176	0.289075
12.8119	12.6996	0.392661	0.292236
12.8124	12.6991	0.392807	0.298593
12.8128	12.6987	0.392328	0.302279
12.8133	12.6982	0.391463	0.307453
12.8138	12.6977	0.391733	0.309689
12.8142	12.6972	0.392624	0.312294
12.8147	12.6968	0.392077	0.316277
12.8152	12.6963	0.392274	0.318779
12.8157	12.6958	0.391309	0.318237
12.8161	12.6953	0.390444	0.316964
12.8166	12.6949	0.391144	0.315459
12.8171	12.6944	0.38988	0.313513
12.8176	12.6939	0.390882	0.310815
12.818	12.6934	0.389302	0.306058
12.8185	12.693	0.389936	0.298893
12.819	12.6925	0.389816	0.292042
12.8194	12.6921	0.388256	0.28681
12.8199	12.6916	0.389311	0.283863
12.8204	12.6911	0.389686	0.279843
12.8209	12.6906	0.389971	0.272968
12.8213	12.6902	0.388352	0.269355
12.8218	12.6897	0.389618	0.267308
12.8223	12.6892	0.390662	0.268653
12.8227	12.6888	0.386954	0.268593
12.8232	12.6883	0.388316	0.268666
12.8237	12.6878	0.389632	0.270981
12.8242	12.6874	0.388323	0.274282
12.8246	12.6869	0.387566	0.280599
12.8251	12.6864	0.386462	0.284037
12.8256	12.6859	0.384731	0.287306
12.8261	12.6854	0.387576	0.289608
12.8265	12.685	0.38776	0.294154
12.827	12.6845	0.386066	0.298557
12.8275	12.684	0.384503	0.302414
12.8279	12.6835	0.385176	0.304179
12.8284	12.6831	0.386633	0.306451
12.8289	12.6826	0.385497	0.308984
12.8294	12.6821	0.387538	0.313087
12.8298	12.6817	0.386791	0.316888
12.8303	12.6812	0.386708	0.318406
12.8308	12.6807	0.386843	0.319796
12.8312	12.6802	0.387806	0.323792
12.8317	12.6798	0.388107	0.327968
12.8322	12.6793	0.387059	0.329182
12.8327	12.6788	0.387182	0.330929
12.8331	12.6784	0.388314	0.332792
12.8336	12.6779	0.391521	0.337355
12.8341	12.6774	0.388073	0.335622
12.8346	12.6769	0.387213	0.336143
12.835	12.6765	0.387553	0.332683
12.8355	12.676	0.387265	0.333257
12.836	12.6755	0.388551	0.333422
12.8364	12.675	0.387679	0.333526
12.8369	12.6745	0.387661	0.332234
12.8374	12.6741	0.386691	0.328685
12.8379	12.6736	0.387004	0.328068
12.8383	12.6731	0.386778	0.326772
12.8388	12.6727	0.387386	0.329553
12.8393	12.6722	0.38677	0.327102
12.8397	12.6717	0.385915	0.320853
12.8402	12.6713	0.387023	0.320805
12.8407	12.6708	0.386741	0.319307
12.8412	12.6703	0.388075	0.318966
12.8416	12.6698	0.384323	0.316228
12.8421	12.6694	0.386421	0.312481
12.8426	12.6689	0.387758	0.31047
12.8431	12.6685	0.387511	0.309349
12.8435	12.668	0.388375	0.308017
12.844	12.6675	0.386447	0.303863
12.8445	12.667	0.386736	0.300822
12.8449	12.6666	0.388216	0.299565
12.8454	12.6661	0.388101	0.297752
12.8459	12.6656	0.386723	0.2956
12.8464	12.6651	0.386847	0.294424
12.8468	12.6646	0.387285	0.290648
12.8473	12.6642	0.387841	0.288835
12.8478	12.6637	0.387668	0.287019
12.8482	12.6632	0.390011	0.287104
12.8487	12.6628	0.38672	0.283993
12.8492	12.6623	0.385996	0.280142
12.8497	12.6619	0.389815	0.278103
12.8501	12.6614	0.388323	0.277977
12.8506	12.6609	0.389159	0.277493
12.8511	12.6604	0.386741	0.273398
12.8516	12.66	0.387616	0.271357
12.852	12.6595	0.38825	0.269129
12.8525	12.659	0.386702	0.267325
12.853	12.6586	0.387602	0.268833
12.8534	12.6581	0.387529	0.266945
12.8539	12.6576	0.386062	0.26616
12.8544	12.6571	0.389392	0.265684
12.8549	12.6567	0.386963	0.267077
12.8553	12.6562	0.387995	0.268461
12.8558	12.6557	0.387536	0.268553
12.8563	12.6552	0.38915	0.268495
12.8567	12.6547	0.388764	0.269316
12.8572	12.6543	0.387682	0.27275
12.8577	12.6538	0.39041	0.27579
12.8582	12.6533	0.388031	0.276511
12.8586	12.6529	0.387659	0.277743
12.8591	12.6524	0.389745	0.280622
12.8596	12.6519	0.39012	0.283179
12.8601	12.6515	0.390258	0.286759
12.8605	12.651	0.388785	0.289454
12.861	12.6505	0.389279	0.289529
12.8615	12.65	0.390305	0.291152
12.8619	12.6495	0.388795	0.295144
12.8624	12.6491	0.39032	0.299294
12.8629	12.6486	0.389639	0.299402
12.8634	12.6482	0.388432	0.300626
12.8638	12.6477	0.388359	0.302988
12.8643	12.6472	0.388776	0.305332
12.8648	12.6467	0.386198	0.307137
12.8652	12.6462	0.385985	0.307725
12.8657	12.6458	0.385018	0.305643
12.8662	12.6453	0.386131	0.30794
12.8667	12.6448	0.385291	0.310225
12.8671	12.6443	0.386713	0.314312
12.8676	12.6438	0.387236	0.312714
12.8681	12.6434	0.386934	0.312831
12.8686	12.6429	0.388701	0.314628
12.869	12.6425	0.388607	0.316832
12.8695	12.642	0.388546	0.317807
12.87	12.6415	0.388039	0.318122
12.8704	12.6411	0.39042	0.317106
12.8709	12.6406	0.392012	0.315766
12.8714	12.6401	0.388488	0.316771
12.8719	12.6396	0.38996	0.318752
12.8723	12.6392	0.389081	0.317364
12.8728	12.6387	0.390023	0.314118
12.8733	12.6382	0.388788	0.315107
12.8737	12.6378	0.389825	0.314245
12.8742	12.6373	0.388437	0.315143
12.8747	12.6368	0.388947	0.314196
12.8752	12.6364	0.389119	0.31221
12.8756	12.6359	0.391046	0.311732
12.8761	12.6354	0.388396	0.311496
12.8766	12.6349	0.388646	0.311891
12.8771	12.6344	0.388345	0.311713
12.8775	12.634	0.387136	0.30774
12.878	12.6335	0.390536	0.308312
12.8785	12.633	0.387876	0.308826
12.8789	12.6326	0.387306	0.309903
12.8794	12.6321	0.387435	0.309325
12.8799	12.6316	0.387692	0.308291
12.8804	12.6312	0.390264	0.309316
12.8808	12.6307	0.388622	0.309615
12.8813	12.6302	0.388127	0.311303
12.8818	12.6297	0.387549	0.310871
12.8822	12.6293	0.38763	0.309387
12.8827	12.6288	0.390024	0.310991
12.8832	12.6283	0.388825	0.311833
12.8837	12.6279	0.387759	0.312873
12.8841	12.6274	0.388635	0.311054
12.8846	12.6269	0.388414	0.308905
12.8851	12.6264	0.389619	0.308862
12.8856	12.626	0.388058	0.309552
12.886	12.6255	0.388251	0.309887
12.8865	12.625	0.387184	0.308588
12.887	12.6245	0.386251	0.305314
12.8874	12.624	0.389255	0.306501
12.8879	12.6236	0.386592	0.306563
12.8884	12.6231	0.386991	0.30529
12.8889	12.6226	0.388078	0.30452
12.8893	12.6222	0.387394	0.303235
12.8898	12.6217	0.388555	0.301425
12.8903	12.6212	0.387126	0.303456
12.8907	12.6207	0.387555	0.303469
12.8912	12.6203	0.387262	0.301564
12.8917	12.6198	0.386627	0.299427
12.8922	12.6193	0.391037	0.301301
12.8926	12.6189	0.38635	0.300333
12.8931	12.6184	0.385858	0.301448
12.8936	12.6179	0.386194	0.301128
12.8941	12.6174	0.385652	0.298951
12.8945	12.617	0.388869	0.299912
12.895	12.6165	0.388189	0.301982
12.8955	12.616	0.387308	0.301486
12.8959	12.6155	0.386408	0.300128
12.8964	12.6151	0.386029	0.299353
12.8969	12.6146	0.386756	0.298512
12.8974	12.6141	0.387483	0.299624
12.8978	12.6136	0.386288	0.29915
12.8983	12.6132	0.384426	0.297984
12.8988	12.6127	0.385288	0.296705
