# 1304     AichiSR QXAFS
# Start     : 8.9544
# End       : 9.0544
# Dir       : Forward
# Points    : 300
# ScanTime  : 1.01549
# Date      : 13.04.23 22:21
# Ring Cur. : 25.5[mA]
12.7557	12.7557	0.401919	1.23081
12.7562	12.7552	0.401063	1.22425
12.7566	12.7548	0.403849	1.22266
12.7571	12.7543	0.403339	1.22667
12.7576	12.7538	0.402588	1.22622
12.7581	12.7533	0.400559	1.22183
12.7585	12.7529	0.401528	1.22231
12.759	12.7524	0.403207	1.22224
12.7595	12.752	0.402387	1.22395
12.7599	12.7515	0.402384	1.22458
12.7604	12.751	0.400795	1.22592
12.7609	12.7505	0.401531	1.21954
12.7614	12.7501	0.402881	1.21969
12.7618	12.7496	0.401395	1.22296
12.7623	12.7491	0.401339	1.22291
12.7628	12.7487	0.401939	1.21985
12.7632	12.7482	0.401045	1.21658
12.7637	12.7477	0.402509	1.21673
12.7642	12.7473	0.399724	1.21922
12.7647	12.7468	0.398796	1.22016
12.7651	12.7463	0.400972	1.22119
12.7656	12.7458	0.400712	1.21829
12.7661	12.7454	0.403585	1.21672
12.7666	12.7449	0.39993	1.21822
12.767	12.7444	0.39984	1.21948
12.7675	12.7439	0.399627	1.21774
12.768	12.7435	0.397699	1.21384
12.7684	12.743	0.401469	1.2126
12.7689	12.7425	0.39977	1.21459
12.7694	12.7421	0.399761	1.21623
12.7699	12.7416	0.400644	1.21413
12.7703	12.7411	0.400005	1.21243
12.7708	12.7406	0.401702	1.21067
12.7713	12.7402	0.401161	1.21284
12.7717	12.7397	0.399818	1.21205
12.7722	12.7392	0.398924	1.2103
12.7727	12.7388	0.398168	1.20697
12.7732	12.7383	0.400923	1.20797
12.7736	12.7378	0.400356	1.20889
12.7741	12.7374	0.399303	1.20838
12.7746	12.7369	0.399483	1.20581
12.7751	12.7364	0.398676	1.20136
12.7755	12.7359	0.401433	1.20337
12.776	12.7354	0.400325	1.20351
12.7765	12.7349	0.398605	1.20373
12.7769	12.7345	0.39943	1.1985
12.7774	12.734	0.39706	1.19403
12.7779	12.7335	0.397977	1.19293
12.7784	12.733	0.397905	1.19355
12.7788	12.7326	0.398409	1.19344
12.7793	12.7321	0.397875	1.18982
12.7798	12.7317	0.397689	1.18593
12.7802	12.7312	0.399235	1.18271
12.7807	12.7307	0.397901	1.18078
12.7812	12.7302	0.39839	1.17904
12.7817	12.7297	0.395693	1.17362
12.7821	12.7293	0.396267	1.16609
12.7826	12.7288	0.397502	1.15966
12.7831	12.7284	0.398186	1.1563
12.7836	12.7279	0.396266	1.14876
12.784	12.7274	0.395595	1.13565
12.7845	12.7269	0.395975	1.12204
12.785	12.7265	0.394764	1.10588
12.7854	12.726	0.396094	1.08373
12.7859	12.7255	0.392501	1.05564
12.7864	12.725	0.391312	1.01401
12.7869	12.7245	0.392529	0.969055
12.7873	12.7241	0.39151	0.915285
12.7878	12.7236	0.392204	0.857116
12.7883	12.7231	0.392796	0.796515
12.7887	12.7227	0.394545	0.739124
12.7892	12.7222	0.395113	0.690253
12.7897	12.7218	0.397939	0.653787
12.7902	12.7213	0.398183	0.631524
12.7906	12.7208	0.395102	0.622082
12.7911	12.7203	0.395446	0.611342
12.7916	12.7199	0.395047	0.611281
12.7921	12.7194	0.396458	0.614946
12.7925	12.7189	0.396772	0.620743
12.793	12.7185	0.394436	0.626766
12.7935	12.718	0.395586	0.628473
12.7939	12.7175	0.39319	0.626579
12.7944	12.7171	0.396663	0.625274
12.7949	12.7166	0.39561	0.619489
12.7954	12.7161	0.395204	0.611733
12.7958	12.7156	0.394373	0.599215
12.7963	12.7151	0.393854	0.584214
12.7968	12.7147	0.395511	0.57365
12.7972	12.7142	0.394395	0.565173
12.7977	12.7137	0.393065	0.554496
12.7982	12.7132	0.39315	0.544833
12.7987	12.7128	0.393519	0.53377
12.7991	12.7123	0.395357	0.52217
12.7996	12.7118	0.392941	0.513149
12.8001	12.7114	0.39381	0.501698
12.8006	12.7109	0.393583	0.483928
12.801	12.7104	0.39372	0.470626
12.8015	12.7099	0.393323	0.454283
12.802	12.7095	0.395756	0.441699
12.8024	12.709	0.3941	0.424886
12.8029	12.7085	0.393326	0.405643
12.8034	12.7081	0.392482	0.386726
12.8039	12.7076	0.392896	0.372773
12.8043	12.7071	0.394349	0.358873
12.8048	12.7066	0.392315	0.343211
12.8053	12.7062	0.392232	0.328784
12.8057	12.7057	0.392844	0.315818
12.8062	12.7052	0.392703	0.306159
12.8067	12.7047	0.393911	0.297453
12.8072	12.7042	0.390453	0.290154
12.8076	12.7038	0.391628	0.283389
12.8081	12.7033	0.391735	0.278719
12.8086	12.7028	0.393694	0.277067
12.8091	12.7024	0.393194	0.277595
12.8095	12.7019	0.391769	0.278049
12.81	12.7014	0.391419	0.277987
12.8105	12.7009	0.392161	0.280568
12.8109	12.7005	0.391337	0.283946
12.8114	12.7	0.390756	0.290595
12.8119	12.6995	0.390156	0.293235
12.8124	12.6991	0.391878	0.298774
12.8128	12.6986	0.392277	0.302424
12.8133	12.6981	0.395569	0.309886
12.8138	12.6977	0.393554	0.313823
12.8142	12.6972	0.391077	0.314728
12.8147	12.6967	0.39129	0.314899
12.8152	12.6962	0.391845	0.315699
12.8157	12.6958	0.392298	0.315665
12.8161	12.6953	0.391707	0.318461
12.8166	12.6948	0.389468	0.315762
12.8171	12.6943	0.390899	0.312004
12.8176	12.6939	0.390237	0.307582
12.818	12.6934	0.391038	0.304716
12.8185	12.6929	0.390788	0.300609
12.819	12.6925	0.388614	0.294555
12.8194	12.692	0.388947	0.287031
12.8199	12.6915	0.390042	0.282188
12.8204	12.6911	0.390785	0.278419
12.8209	12.6906	0.390073	0.275013
12.8213	12.6901	0.390115	0.271885
12.8218	12.6897	0.390096	0.268622
12.8223	12.6892	0.390722	0.268076
12.8227	12.6887	0.39013	0.268904
12.8232	12.6883	0.391164	0.271995
12.8237	12.6878	0.389673	0.273694
12.8242	12.6873	0.388957	0.277176
12.8246	12.6868	0.389171	0.279443
12.8251	12.6864	0.390142	0.28383
12.8256	12.6859	0.391087	0.289406
12.8261	12.6854	0.390224	0.292564
12.8265	12.6849	0.389516	0.295883
12.827	12.6844	0.390774	0.298407
12.8275	12.684	0.38925	0.303937
12.8279	12.6835	0.391108	0.307714
12.8284	12.683	0.387915	0.309803
12.8289	12.6826	0.389169	0.311269
12.8294	12.6821	0.39137	0.315086
12.8298	12.6816	0.391847	0.319887
12.8303	12.6811	0.391783	0.323373
12.8308	12.6807	0.391466	0.326192
12.8312	12.6802	0.391526	0.327385
12.8317	12.6797	0.391826	0.329354
12.8322	12.6793	0.391557	0.332464
12.8327	12.6788	0.391984	0.336201
12.8331	12.6783	0.391564	0.336807
12.8336	12.6779	0.392727	0.336877
12.8341	12.6774	0.393499	0.337118
12.8346	12.6769	0.392545	0.33959
12.835	12.6764	0.393454	0.341226
12.8355	12.6759	0.393314	0.3405
12.836	12.6755	0.393248	0.337393
12.8364	12.675	0.393222	0.336252
12.8369	12.6745	0.392806	0.336521
12.8374	12.674	0.394099	0.336008
12.8379	12.6735	0.392564	0.334124
12.8383	12.6731	0.390172	0.332758
12.8388	12.6726	0.392491	0.330975
12.8393	12.6722	0.394081	0.331015
12.8397	12.6717	0.39347	0.331097
12.8402	12.6712	0.391853	0.327936
12.8407	12.6707	0.394085	0.324819
12.8412	12.6703	0.393531	0.322018
12.8416	12.6698	0.393236	0.321268
12.8421	12.6693	0.393362	0.321491
12.8426	12.6689	0.391641	0.317261
12.8431	12.6684	0.395585	0.314045
12.8435	12.6679	0.394412	0.311378
12.844	12.6675	0.394316	0.309198
12.8445	12.667	0.392955	0.309022
12.8449	12.6665	0.392743	0.30643
12.8454	12.666	0.392693	0.30112
12.8459	12.6656	0.394277	0.298314
12.8464	12.6651	0.39238	0.296229
12.8468	12.6646	0.394281	0.296833
12.8473	12.6641	0.392835	0.293946
12.8478	12.6637	0.393775	0.289474
12.8482	12.6632	0.396273	0.288634
12.8487	12.6627	0.394024	0.286916
12.8492	12.6623	0.39363	0.284801
12.8497	12.6618	0.39494	0.283296
12.8501	12.6613	0.392678	0.280365
12.8506	12.6609	0.393342	0.278304
12.8511	12.6604	0.393171	0.27722
12.8516	12.6599	0.393297	0.276666
12.852	12.6594	0.391271	0.275567
12.8525	12.659	0.391912	0.272158
12.853	12.6585	0.392365	0.269768
12.8534	12.6581	0.391776	0.270263
12.8539	12.6576	0.392848	0.272087
12.8544	12.6571	0.391215	0.270547
12.8549	12.6566	0.392888	0.269746
12.8553	12.6561	0.393789	0.271009
12.8558	12.6557	0.393282	0.272716
12.8563	12.6552	0.394191	0.273997
12.8567	12.6547	0.392359	0.275643
12.8572	12.6542	0.393373	0.274608
12.8577	12.6537	0.393319	0.27636
12.8582	12.6533	0.394064	0.280339
12.8586	12.6528	0.392954	0.28347
12.8591	12.6523	0.392763	0.2844
12.8596	12.6519	0.392934	0.286466
12.8601	12.6514	0.394041	0.288596
12.8605	12.6509	0.394884	0.291946
12.861	12.6504	0.393908	0.29429
12.8615	12.65	0.392458	0.29631
12.8619	12.6495	0.392157	0.297359
12.8624	12.649	0.394801	0.299298
12.8629	12.6486	0.392826	0.303588
12.8634	12.6481	0.394214	0.305727
12.8638	12.6476	0.392768	0.307577
12.8643	12.6471	0.391766	0.307868
12.8648	12.6467	0.392354	0.309902
12.8652	12.6462	0.390727	0.310527
12.8657	12.6457	0.388804	0.312011
12.8662	12.6452	0.389664	0.312865
12.8667	12.6447	0.387791	0.312007
12.8671	12.6443	0.390504	0.314295
12.8676	12.6438	0.390377	0.317121
12.8681	12.6433	0.390661	0.318234
12.8686	12.6429	0.393034	0.318239
12.869	12.6424	0.391438	0.317928
12.8695	12.6419	0.393752	0.318654
12.87	12.6415	0.39274	0.321145
12.8704	12.641	0.392385	0.320775
12.8709	12.6405	0.393002	0.321106
12.8714	12.6401	0.392606	0.319674
12.8719	12.6396	0.394567	0.31946
12.8723	12.6391	0.394521	0.319863
12.8728	12.6387	0.39264	0.320519
12.8733	12.6382	0.392016	0.3191
12.8737	12.6377	0.391435	0.315968
12.8742	12.6373	0.393619	0.31506
12.8747	12.6368	0.391522	0.316141
12.8752	12.6363	0.39198	0.316736
12.8756	12.6358	0.392028	0.314549
12.8761	12.6354	0.391565	0.312143
12.8766	12.6349	0.392308	0.313322
12.8771	12.6344	0.391887	0.313962
12.8775	12.6339	0.392623	0.313916
12.878	12.6335	0.390079	0.312702
12.8785	12.633	0.391243	0.310673
12.8789	12.6325	0.392733	0.311669
12.8794	12.6321	0.390471	0.313229
12.8799	12.6316	0.392599	0.314984
12.8804	12.6311	0.391725	0.311436
12.8808	12.6306	0.389012	0.310319
12.8813	12.6302	0.391981	0.312147
12.8818	12.6297	0.391051	0.312036
12.8822	12.6292	0.391312	0.313606
12.8827	12.6288	0.388739	0.312683
12.8832	12.6283	0.389764	0.311888
12.8837	12.6278	0.393269	0.311509
12.8841	12.6274	0.390099	0.312486
12.8846	12.6269	0.389285	0.312269
12.8851	12.6264	0.390886	0.312273
12.8856	12.6259	0.389904	0.310726
12.886	12.6254	0.391818	0.309733
12.8865	12.6249	0.389236	0.311642
12.887	12.6245	0.389119	0.309911
12.8874	12.624	0.390475	0.308711
12.8879	12.6235	0.388513	0.304882
12.8884	12.623	0.389922	0.304778
12.8889	12.6226	0.389757	0.305542
12.8893	12.6221	0.390301	0.305905
12.8898	12.6217	0.388374	0.303445
12.8903	12.6212	0.388695	0.302329
12.8907	12.6207	0.391077	0.302759
12.8912	12.6202	0.390585	0.304684
12.8917	12.6197	0.388657	0.303781
12.8922	12.6193	0.389469	0.302347
12.8926	12.6188	0.389009	0.300446
12.8931	12.6184	0.390382	0.302188
12.8936	12.6179	0.388952	0.302011
12.8941	12.6174	0.388908	0.303918
12.8945	12.6169	0.387515	0.301702
12.895	12.6164	0.388306	0.3003
12.8955	12.616	0.389635	0.301077
12.8959	12.6155	0.388471	0.302055
12.8964	12.615	0.386857	0.301383
12.8969	12.6145	0.386324	0.301266
12.8974	12.6141	0.385549	0.299724
12.8978	12.6136	0.388637	0.299063
12.8983	12.6131	0.388705	0.300618
12.8988	12.6127	0.388509	0.300565
