# 1304     AichiSR QXAFS
# Start     : 8.9544
# End       : 9.0544
# Dir       : Backward
# Points    : 300
# ScanTime  : 1.01549
# Date      : 13.04.23 22:21
# Ring Cur. : 25.4[mA]
12.7557	12.6117	0.304469	0.23142
12.7562	12.6122	0.302153	0.231106
12.7566	12.6127	0.303673	0.234698
12.7571	12.6131	0.305218	0.235409
12.7576	12.6136	0.302588	0.232917
12.7581	12.6141	0.304893	0.234537
12.7585	12.6145	0.306471	0.237902
12.759	12.615	0.304493	0.237104
12.7595	12.6155	0.304964	0.237572
12.7599	12.616	0.309023	0.238873
12.7604	12.6164	0.308465	0.238375
12.7609	12.6169	0.306681	0.23844
12.7614	12.6174	0.307018	0.240149
12.7618	12.6179	0.307204	0.240121
12.7623	12.6183	0.30444	0.237398
12.7628	12.6188	0.307713	0.237606
12.7632	12.6193	0.305415	0.238888
12.7637	12.6197	0.304964	0.238443
12.7642	12.6202	0.304317	0.239002
12.7647	12.6207	0.306283	0.238419
12.7651	12.6212	0.308044	0.239273
12.7656	12.6216	0.305101	0.238824
12.7661	12.6221	0.307076	0.241479
12.7666	12.6226	0.308941	0.242304
12.767	12.623	0.307133	0.240687
12.7675	12.6235	0.309154	0.240732
12.768	12.624	0.308429	0.242629
12.7684	12.6245	0.306143	0.244589
12.7689	12.6249	0.305358	0.243848
12.7694	12.6254	0.307836	0.243455
12.7699	12.6259	0.309468	0.243745
12.7703	12.6264	0.306021	0.244476
12.7708	12.6269	0.306743	0.244956
12.7713	12.6273	0.307976	0.247388
12.7717	12.6278	0.305281	0.244769
12.7722	12.6283	0.309382	0.245805
12.7727	12.6288	0.309002	0.246757
12.7732	12.6292	0.306314	0.247924
12.7736	12.6297	0.306933	0.248153
12.7741	12.6301	0.309422	0.246918
12.7746	12.6306	0.310872	0.246191
12.7751	12.6311	0.307329	0.245864
12.7755	12.6316	0.309353	0.247298
12.776	12.6321	0.306745	0.245709
12.7765	12.6325	0.307456	0.24384
12.7769	12.633	0.311093	0.246488
12.7774	12.6334	0.309512	0.246478
12.7779	12.6339	0.306866	0.245352
12.7784	12.6344	0.307089	0.247027
12.7788	12.6349	0.309692	0.245771
12.7793	12.6353	0.310438	0.247537
12.7798	12.6358	0.307621	0.247236
12.7802	12.6363	0.30976	0.249511
12.7807	12.6368	0.309091	0.249907
12.7812	12.6372	0.310034	0.249486
12.7817	12.6377	0.311796	0.25117
12.7821	12.6382	0.31084	0.251132
12.7826	12.6386	0.309289	0.251856
12.7831	12.6391	0.308948	0.251601
12.7836	12.6396	0.308222	0.251239
12.784	12.64	0.31224	0.25258
12.7845	12.6405	0.309862	0.251585
12.785	12.641	0.309585	0.254644
12.7854	12.6415	0.308633	0.253862
12.7859	12.6419	0.308731	0.251503
12.7864	12.6424	0.312454	0.254214
12.7869	12.6428	0.312252	0.254697
12.7873	12.6433	0.308861	0.252526
12.7878	12.6438	0.307575	0.250843
12.7883	12.6443	0.308601	0.251015
12.7887	12.6447	0.310994	0.250776
12.7892	12.6452	0.306292	0.247596
12.7897	12.6457	0.307221	0.248607
12.7902	12.6462	0.307161	0.247507
12.7906	12.6467	0.30751	0.244464
12.7911	12.6471	0.310651	0.246101
12.7916	12.6476	0.310676	0.246288
12.7921	12.6481	0.309682	0.244488
12.7925	12.6486	0.309443	0.242367
12.793	12.649	0.313364	0.240415
12.7935	12.6495	0.312574	0.24078
12.7939	12.65	0.311867	0.23839
12.7944	12.6504	0.311653	0.239248
12.7949	12.6509	0.311442	0.234382
12.7954	12.6514	0.312319	0.231749
12.7958	12.6519	0.314096	0.231308
12.7963	12.6523	0.314136	0.23035
12.7968	12.6528	0.311686	0.227223
12.7972	12.6533	0.312295	0.225815
12.7977	12.6537	0.312429	0.223464
12.7982	12.6542	0.315133	0.222498
12.7987	12.6547	0.313176	0.221849
12.7991	12.6552	0.314031	0.220306
12.7996	12.6556	0.313136	0.218595
12.8001	12.6561	0.311962	0.216269
12.8006	12.6566	0.315335	0.21678
12.801	12.6571	0.315396	0.218128
12.8015	12.6576	0.313924	0.218018
12.802	12.658	0.31194	0.217058
12.8024	12.6585	0.313092	0.215396
12.8029	12.659	0.316221	0.218052
12.8034	12.6594	0.313133	0.218216
12.8039	12.6599	0.312417	0.219317
12.8043	12.6604	0.312095	0.219937
12.8048	12.6608	0.314599	0.220038
12.8053	12.6613	0.316316	0.222648
12.8057	12.6618	0.316246	0.226193
12.8062	12.6623	0.314431	0.226207
12.8067	12.6627	0.313632	0.226869
12.8072	12.6632	0.31485	0.228018
12.8076	12.6636	0.3174	0.230895
12.8081	12.6641	0.316747	0.232952
12.8086	12.6646	0.314821	0.237081
12.8091	12.6651	0.314051	0.235232
12.8095	12.6655	0.314639	0.236373
12.81	12.666	0.317627	0.239856
12.8105	12.6665	0.317728	0.242794
12.8109	12.667	0.314483	0.244548
12.8114	12.6674	0.314174	0.244822
12.8119	12.6679	0.317479	0.247184
12.8124	12.6684	0.317731	0.250332
12.8128	12.6689	0.315548	0.251758
12.8133	12.6693	0.315066	0.254543
12.8138	12.6698	0.316153	0.256064
12.8142	12.6702	0.316096	0.256419
12.8147	12.6707	0.318088	0.258969
12.8152	12.6712	0.317996	0.263741
12.8157	12.6717	0.314816	0.262852
12.8161	12.6721	0.315615	0.263829
12.8166	12.6726	0.317222	0.265747
12.8171	12.6731	0.317653	0.266012
12.8176	12.6735	0.314706	0.267964
12.818	12.674	0.316213	0.271195
12.8185	12.6745	0.316602	0.271477
12.819	12.675	0.315052	0.269334
12.8194	12.6754	0.316458	0.269357
12.8199	12.6759	0.318177	0.275341
12.8204	12.6764	0.317632	0.275521
12.8209	12.6769	0.315601	0.272673
12.8213	12.6774	0.319115	0.274383
12.8218	12.6778	0.319694	0.273867
12.8223	12.6783	0.317089	0.274565
12.8227	12.6788	0.317781	0.275366
12.8232	12.6792	0.317033	0.274461
12.8237	12.6797	0.316587	0.268827
12.8242	12.6802	0.317569	0.267842
12.8246	12.6807	0.318796	0.270393
12.8251	12.6811	0.317605	0.265975
12.8256	12.6816	0.314689	0.261213
12.8261	12.6821	0.31676	0.25963
12.8265	12.6826	0.316991	0.258429
12.827	12.683	0.315917	0.25507
12.8275	12.6835	0.313824	0.254052
12.8279	12.684	0.315723	0.251128
12.8284	12.6844	0.315386	0.246769
12.8289	12.6849	0.316586	0.246442
12.8294	12.6854	0.317699	0.245423
12.8298	12.6859	0.315039	0.241084
12.8303	12.6864	0.31517	0.236003
12.8308	12.6868	0.318881	0.233655
12.8312	12.6873	0.319052	0.231087
12.8317	12.6878	0.31751	0.228336
12.8322	12.6883	0.317847	0.224798
12.8327	12.6887	0.318398	0.220413
12.8331	12.6892	0.31733	0.218691
12.8336	12.6896	0.318826	0.219739
12.8341	12.6901	0.31995	0.220258
12.8346	12.6906	0.318093	0.221301
12.835	12.6911	0.316611	0.219643
12.8355	12.6915	0.318516	0.22439
12.836	12.692	0.318359	0.229367
12.8364	12.6925	0.317999	0.234232
12.8369	12.6929	0.316107	0.238866
12.8374	12.6934	0.315447	0.240642
12.8379	12.6938	0.315734	0.243207
12.8383	12.6943	0.318148	0.250508
12.8388	12.6948	0.317828	0.255614
12.8393	12.6953	0.315731	0.256769
12.8397	12.6958	0.315049	0.255173
12.8402	12.6962	0.318701	0.257821
12.8407	12.6967	0.317656	0.258377
12.8412	12.6972	0.316514	0.257818
12.8416	12.6977	0.316738	0.257937
12.8421	12.6981	0.315249	0.253689
12.8426	12.6986	0.316532	0.24956
12.8431	12.6991	0.317241	0.247568
12.8435	12.6995	0.318049	0.244144
12.844	12.7	0.315507	0.241099
12.8445	12.7004	0.314309	0.235139
12.8449	12.7009	0.318869	0.232711
12.8454	12.7014	0.317206	0.229495
12.8459	12.7019	0.316142	0.228318
12.8464	12.7023	0.31621	0.226688
12.8468	12.7028	0.317467	0.22345
12.8473	12.7033	0.316045	0.221394
12.8478	12.7038	0.320304	0.227531
12.8482	12.7042	0.321593	0.231466
12.8487	12.7047	0.316909	0.232415
12.8492	12.7052	0.316276	0.235269
12.8497	12.7057	0.31779	0.242471
12.8501	12.7062	0.318864	0.254596
12.8506	12.7066	0.318208	0.262816
12.8511	12.7071	0.317018	0.273562
12.8516	12.7076	0.317273	0.282537
12.852	12.7081	0.318522	0.293685
12.8525	12.7085	0.319739	0.308518
12.853	12.709	0.322161	0.325959
12.8534	12.7095	0.318866	0.337285
12.8539	12.7099	0.317033	0.345939
12.8544	12.7104	0.319998	0.360496
12.8549	12.7109	0.320633	0.376146
12.8553	12.7114	0.318366	0.387027
12.8558	12.7118	0.317084	0.399572
12.8563	12.7123	0.318471	0.409174
12.8567	12.7128	0.319103	0.416499
12.8572	12.7132	0.318166	0.428082
12.8577	12.7137	0.321068	0.438741
12.8582	12.7142	0.320598	0.447083
12.8586	12.7146	0.317562	0.451026
12.8591	12.7151	0.318653	0.461615
12.8596	12.7156	0.321806	0.472364
12.8601	12.7161	0.320967	0.483037
12.8605	12.7166	0.320698	0.490016
12.861	12.717	0.319632	0.496609
12.8615	12.7175	0.32002	0.502448
12.8619	12.718	0.321298	0.50791
12.8624	12.7185	0.321701	0.513475
12.8629	12.7189	0.31973	0.508978
12.8634	12.7194	0.319793	0.502247
12.8638	12.7198	0.321936	0.502626
12.8643	12.7203	0.321027	0.497418
12.8648	12.7208	0.319564	0.497158
12.8652	12.7213	0.322178	0.501076
12.8657	12.7217	0.321005	0.507264
12.8662	12.7222	0.320118	0.515596
12.8667	12.7227	0.321012	0.540385
12.8671	12.7231	0.322371	0.579353
12.8676	12.7236	0.319216	0.616051
12.8681	12.7241	0.316897	0.657149
12.8686	12.7245	0.318623	0.712181
12.869	12.725	0.316348	0.758599
12.8695	12.7255	0.316422	0.80184
12.87	12.726	0.318023	0.839882
12.8704	12.7264	0.318925	0.864204
12.8709	12.7269	0.320965	0.883768
12.8714	12.7274	0.321203	0.906489
12.8719	12.7279	0.32358	0.922237
12.8723	12.7283	0.32053	0.928807
12.8728	12.7288	0.322621	0.932558
12.8733	12.7293	0.324692	0.939962
12.8737	12.7297	0.322856	0.944352
12.8742	12.7302	0.322857	0.948459
12.8747	12.7307	0.322217	0.954731
12.8752	12.7312	0.322644	0.951833
12.8756	12.7316	0.322155	0.949524
12.8761	12.7321	0.323843	0.960395
12.8766	12.7326	0.324909	0.969633
12.8771	12.733	0.321946	0.969039
12.8775	12.7335	0.322058	0.963208
12.878	12.734	0.326352	0.972834
12.8785	12.7345	0.324746	0.977767
12.8789	12.735	0.323934	0.977204
12.8794	12.7354	0.323659	0.979192
12.8799	12.7359	0.324722	0.977863
12.8804	12.7364	0.32601	0.980474
12.8808	12.7369	0.325026	0.978868
12.8813	12.7374	0.325265	0.984827
12.8818	12.7378	0.324503	0.983453
12.8822	12.7383	0.323221	0.979442
12.8827	12.7388	0.325656	0.983785
12.8832	12.7392	0.325626	0.986965
12.8837	12.7397	0.326112	0.986822
12.8841	12.7402	0.326458	0.990903
12.8846	12.7406	0.326702	0.990609
12.8851	12.7411	0.328172	0.989907
12.8856	12.7416	0.326251	0.992443
12.886	12.7421	0.328464	1.00236
12.8865	12.7425	0.326264	0.994838
12.887	12.743	0.327077	0.989606
12.8874	12.7435	0.331021	0.997963
12.8879	12.7439	0.328487	0.997415
12.8884	12.7444	0.327164	0.994996
12.8889	12.7449	0.32693	0.996366
12.8893	12.7454	0.328005	0.995559
12.8898	12.7458	0.327857	0.993542
12.8903	12.7463	0.329696	1.00096
12.8907	12.7468	0.331181	1.00973
12.8912	12.7473	0.3284	1.00082
12.8917	12.7477	0.326783	0.99738
12.8922	12.7482	0.332732	1.00797
12.8926	12.7487	0.32999	1.00658
12.8931	12.7491	0.328455	1.00706
12.8936	12.7496	0.332702	1.0129
12.8941	12.7501	0.327869	1.00237
12.8945	12.7505	0.330934	1.00004
12.895	12.751	0.330917	1.00841
12.8955	12.7515	0.331302	1.0081
12.8959	12.752	0.328231	1.00468
12.8964	12.7524	0.328545	1.00325
12.8969	12.7529	0.3331	1.00851
12.8974	12.7533	0.329634	1.00613
12.8978	12.7538	0.330897	1.01079
12.8983	12.7543	0.331023	1.0116
12.8988	12.7548	0.329948	1.00611
