# 1304     AichiSR QXAFS
# Start     : 8.9544
# End       : 9.0544
# Dir       : Forward
# Points    : 300
# ScanTime  : 1.01549
# Date      : 13.04.23 22:29
# Ring Cur. : 25.4[mA]
12.7557	12.7558	0.401888	1.22275
12.7562	12.7553	0.402329	1.22345
12.7566	12.7548	0.399577	1.21957
12.7571	12.7543	0.401801	1.22344
12.7576	12.7539	0.399519	1.2253
12.7581	12.7534	0.399563	1.21863
12.7585	12.7529	0.402564	1.22044
12.759	12.7525	0.401246	1.22
12.7595	12.752	0.399675	1.22221
12.7599	12.7515	0.398971	1.21985
12.7604	12.7511	0.400748	1.22022
12.7609	12.7506	0.401482	1.21827
12.7614	12.7501	0.399739	1.21548
12.7618	12.7496	0.401675	1.21989
12.7623	12.7492	0.398409	1.21818
12.7628	12.7487	0.398303	1.21647
12.7632	12.7483	0.399021	1.21775
12.7637	12.7478	0.399351	1.21666
12.7642	12.7473	0.400735	1.21595
12.7647	12.7468	0.398926	1.21581
12.7651	12.7464	0.400147	1.21301
12.7656	12.7459	0.399052	1.21081
12.7661	12.7454	0.400326	1.2145
12.7666	12.7449	0.400436	1.21635
12.767	12.7445	0.398984	1.21638
12.7675	12.744	0.397384	1.20812
12.768	12.7435	0.399999	1.21031
12.7684	12.743	0.398862	1.21074
12.7689	12.7426	0.397855	1.20918
12.7694	12.7421	0.39729	1.2104
12.7699	12.7417	0.396967	1.20518
12.7703	12.7412	0.398704	1.20614
12.7708	12.7407	0.399613	1.20423
12.7713	12.7402	0.398779	1.20736
12.7717	12.7397	0.39628	1.20529
12.7722	12.7393	0.396391	1.20159
12.7727	12.7388	0.399624	1.2024
12.7732	12.7384	0.397696	1.20347
12.7736	12.7379	0.397096	1.20345
12.7741	12.7374	0.396832	1.20159
12.7746	12.7369	0.39811	1.19615
12.7751	12.7364	0.39891	1.194
12.7755	12.736	0.397401	1.19578
12.776	12.7355	0.396465	1.19686
12.7765	12.735	0.393929	1.19334
12.7769	12.7345	0.395759	1.18741
12.7774	12.734	0.395863	1.18301
12.7779	12.7336	0.396104	1.18511
12.7784	12.7331	0.395142	1.18345
12.7788	12.7326	0.394843	1.18213
12.7793	12.7322	0.396665	1.17923
12.7798	12.7317	0.395693	1.17591
12.7802	12.7312	0.396336	1.17534
12.7807	12.7307	0.396205	1.17402
12.7812	12.7303	0.392934	1.1665
12.7817	12.7298	0.39399	1.15974
12.7821	12.7293	0.394469	1.15422
12.7826	12.7289	0.395706	1.15041
12.7831	12.7284	0.394435	1.14582
12.7836	12.7279	0.391692	1.13711
12.784	12.7275	0.393001	1.1225
12.7845	12.727	0.392678	1.11396
12.785	12.7265	0.391725	1.09654
12.7854	12.726	0.390696	1.07706
12.7859	12.7255	0.389229	1.04675
12.7864	12.7251	0.387668	1.0042
12.7869	12.7246	0.388471	0.962792
12.7873	12.7241	0.388615	0.91037
12.7878	12.7236	0.389815	0.848369
12.7883	12.7232	0.388752	0.786343
12.7887	12.7227	0.391958	0.727217
12.7892	12.7223	0.391995	0.679773
12.7897	12.7218	0.391814	0.650498
12.7902	12.7213	0.394055	0.629672
12.7906	12.7209	0.391354	0.615853
12.7911	12.7204	0.390216	0.604632
12.7916	12.7199	0.39384	0.609302
12.7921	12.7194	0.394616	0.616514
12.7925	12.719	0.393668	0.617531
12.793	12.7185	0.392098	0.621809
12.7935	12.7181	0.392684	0.623035
12.7939	12.7176	0.394263	0.623935
12.7944	12.7171	0.393562	0.621096
12.7949	12.7166	0.393711	0.617197
12.7954	12.7161	0.391974	0.606969
12.7958	12.7157	0.390729	0.593351
12.7963	12.7152	0.39364	0.582081
12.7968	12.7147	0.391865	0.573651
12.7972	12.7142	0.392458	0.563407
12.7977	12.7137	0.390899	0.554289
12.7982	12.7133	0.391048	0.540624
12.7987	12.7128	0.39307	0.532423
12.7991	12.7124	0.393185	0.524319
12.7996	12.7119	0.392952	0.512279
12.8001	12.7114	0.391515	0.499442
12.8006	12.7109	0.392153	0.481945
12.801	12.7105	0.392366	0.469971
12.8015	12.71	0.392752	0.454298
12.802	12.7095	0.392207	0.439257
12.8024	12.7091	0.394067	0.422324
12.8029	12.7086	0.391681	0.402563
12.8034	12.7081	0.393308	0.386496
12.8039	12.7077	0.393648	0.37327
12.8043	12.7072	0.394436	0.360469
12.8048	12.7067	0.394421	0.344194
12.8053	12.7062	0.392649	0.329214
12.8057	12.7057	0.395525	0.317774
12.8062	12.7052	0.39432	0.306899
12.8067	12.7048	0.394518	0.299243
12.8072	12.7043	0.393692	0.290814
12.8076	12.7038	0.393973	0.284915
12.8081	12.7033	0.395229	0.279443
12.8086	12.7029	0.394265	0.278061
12.8091	12.7024	0.396118	0.279356
12.8095	12.7019	0.393423	0.279333
12.81	12.7015	0.393671	0.279705
12.8105	12.701	0.395966	0.282651
12.8109	12.7005	0.395494	0.288385
12.8114	12.7	0.393852	0.291951
12.8119	12.6996	0.396371	0.296265
12.8124	12.6991	0.393456	0.298398
12.8128	12.6987	0.395668	0.303239
12.8133	12.6982	0.393843	0.309061
12.8138	12.6977	0.395326	0.314978
12.8142	12.6972	0.394305	0.317532
12.8147	12.6968	0.393821	0.317712
12.8152	12.6963	0.3947	0.319622
12.8157	12.6958	0.393736	0.319968
12.8161	12.6953	0.394271	0.32055
12.8166	12.6949	0.393955	0.318323
12.8171	12.6944	0.39594	0.316516
12.8176	12.6939	0.395889	0.31114
12.818	12.6934	0.394857	0.309523
12.8185	12.693	0.395163	0.305641
12.819	12.6925	0.39512	0.299682
12.8194	12.6921	0.395591	0.291262
12.8199	12.6916	0.39717	0.287014
12.8204	12.6911	0.396078	0.283434
12.8209	12.6906	0.394377	0.27812
12.8213	12.6902	0.394789	0.274835
12.8218	12.6897	0.395407	0.270841
12.8223	12.6892	0.397498	0.271272
12.8227	12.6888	0.39671	0.272055
12.8232	12.6883	0.394982	0.274727
12.8237	12.6878	0.394652	0.276352
12.8242	12.6874	0.395347	0.278291
12.8246	12.6869	0.396446	0.283588
12.8251	12.6864	0.394982	0.28792
12.8256	12.6859	0.393337	0.292379
12.8261	12.6854	0.392998	0.295822
12.8265	12.685	0.392668	0.299212
12.827	12.6845	0.394068	0.301901
12.8275	12.684	0.393953	0.307311
12.8279	12.6835	0.392647	0.309644
12.8284	12.6831	0.394259	0.313382
12.8289	12.6826	0.394403	0.315115
12.8294	12.6821	0.395376	0.319251
12.8298	12.6817	0.394624	0.323018
12.8303	12.6812	0.394753	0.327511
12.8308	12.6807	0.396931	0.329537
12.8312	12.6802	0.394145	0.32997
12.8317	12.6798	0.396247	0.334114
12.8322	12.6793	0.396145	0.337369
12.8327	12.6788	0.395629	0.340256
12.8331	12.6784	0.395866	0.342093
12.8336	12.6779	0.395896	0.339389
12.8341	12.6774	0.397296	0.341471
12.8346	12.6769	0.398043	0.34279
12.835	12.6765	0.39633	0.34342
12.8355	12.676	0.394384	0.341325
12.836	12.6755	0.394996	0.338863
12.8364	12.675	0.396918	0.339175
12.8369	12.6745	0.395218	0.339796
12.8374	12.6741	0.394765	0.340185
12.8379	12.6736	0.396594	0.338204
12.8383	12.6731	0.395329	0.33436
12.8388	12.6727	0.398323	0.335293
12.8393	12.6722	0.397134	0.333618
12.8397	12.6717	0.397744	0.332918
12.8402	12.6713	0.396113	0.330593
12.8407	12.6708	0.3951	0.326862
12.8412	12.6703	0.396699	0.325699
12.8416	12.6698	0.395387	0.324856
12.8421	12.6694	0.396232	0.324047
12.8426	12.6689	0.395984	0.319621
12.8431	12.6685	0.395681	0.314488
12.8435	12.668	0.398409	0.31379
12.844	12.6675	0.39662	0.311697
12.8445	12.667	0.3966	0.308553
12.8449	12.6666	0.396148	0.306656
12.8454	12.6661	0.396097	0.303473
12.8459	12.6656	0.396515	0.301167
12.8464	12.6651	0.396246	0.300497
12.8468	12.6646	0.395617	0.299389
12.8473	12.6642	0.396871	0.294606
12.8478	12.6637	0.395274	0.291096
12.8482	12.6632	0.397441	0.290961
12.8487	12.6628	0.396419	0.289574
12.8492	12.6623	0.396136	0.288118
12.8497	12.6619	0.39355	0.284071
12.8501	12.6614	0.394532	0.281425
12.8506	12.6609	0.395117	0.280018
12.8511	12.6604	0.394803	0.279239
12.8516	12.66	0.394623	0.277023
12.852	12.6595	0.394582	0.275443
12.8525	12.659	0.393777	0.270735
12.853	12.6586	0.394161	0.271811
12.8534	12.6581	0.396366	0.273761
12.8539	12.6576	0.394193	0.271349
12.8544	12.6571	0.394098	0.27045
12.8549	12.6567	0.392913	0.269601
12.8553	12.6562	0.394602	0.272081
12.8558	12.6557	0.392762	0.272937
12.8563	12.6552	0.393905	0.274317
12.8567	12.6547	0.394487	0.275153
12.8572	12.6543	0.393316	0.275413
12.8577	12.6538	0.395537	0.27903
12.8582	12.6533	0.396115	0.280355
12.8586	12.6529	0.39404	0.28396
12.8591	12.6524	0.395326	0.285292
12.8596	12.6519	0.394166	0.285158
12.8601	12.6515	0.394535	0.289421
12.8605	12.651	0.395518	0.291656
12.861	12.6505	0.39481	0.294799
12.8615	12.65	0.393874	0.296259
12.8619	12.6496	0.392081	0.297279
12.8624	12.6491	0.394475	0.300362
12.8629	12.6486	0.393559	0.304786
12.8634	12.6482	0.393661	0.306618
12.8638	12.6477	0.391729	0.306999
12.8643	12.6472	0.392753	0.306686
12.8648	12.6467	0.392546	0.309516
12.8652	12.6462	0.389875	0.311076
12.8657	12.6458	0.389994	0.31122
12.8662	12.6453	0.390807	0.312515
12.8667	12.6448	0.389628	0.312213
12.8671	12.6443	0.390591	0.314023
12.8676	12.6438	0.39125	0.31639
12.8681	12.6434	0.390876	0.318221
12.8686	12.6429	0.392426	0.318513
12.869	12.6425	0.391771	0.317566
12.8695	12.642	0.391509	0.319244
12.87	12.6415	0.392166	0.320964
12.8704	12.6411	0.390072	0.322606
12.8709	12.6406	0.391796	0.320197
12.8714	12.6401	0.3911	0.317175
12.8719	12.6396	0.392227	0.318843
12.8723	12.6392	0.39196	0.319528
12.8728	12.6387	0.389386	0.318797
12.8733	12.6382	0.391494	0.317672
12.8737	12.6378	0.391732	0.315495
12.8742	12.6373	0.392572	0.314718
12.8747	12.6368	0.393261	0.316743
12.8752	12.6363	0.391155	0.315029
12.8756	12.6359	0.390796	0.313262
12.8761	12.6354	0.390566	0.313678
12.8766	12.6349	0.392099	0.312907
12.8771	12.6344	0.39206	0.312846
12.8775	12.634	0.389811	0.312403
12.878	12.6335	0.389473	0.309602
12.8785	12.633	0.389619	0.30884
12.8789	12.6326	0.390747	0.309251
12.8794	12.6321	0.392441	0.312219
12.8799	12.6316	0.388796	0.311943
12.8804	12.6312	0.388807	0.310617
12.8808	12.6307	0.391019	0.311106
12.8813	12.6302	0.391464	0.311369
12.8818	12.6297	0.390282	0.312975
12.8822	12.6293	0.388849	0.311946
12.8827	12.6288	0.389191	0.312179
12.8832	12.6283	0.389944	0.310997
12.8837	12.6279	0.38939	0.310577
12.8841	12.6274	0.389947	0.311555
12.8846	12.6269	0.389136	0.311359
12.8851	12.6264	0.389749	0.309667
12.8856	12.626	0.389546	0.308415
12.886	12.6255	0.391266	0.308867
12.8865	12.625	0.390307	0.311346
12.887	12.6245	0.389472	0.308981
12.8874	12.624	0.388765	0.307558
12.8879	12.6236	0.388606	0.306407
12.8884	12.6231	0.389711	0.305853
12.8889	12.6226	0.386698	0.304765
12.8893	12.6222	0.388318	0.306082
12.8898	12.6217	0.387658	0.302095
12.8903	12.6212	0.387131	0.301683
12.8907	12.6207	0.388742	0.303198
12.8912	12.6203	0.389059	0.30342
12.8917	12.6198	0.388161	0.302658
12.8922	12.6193	0.386123	0.301871
12.8926	12.6189	0.388396	0.300593
12.8931	12.6184	0.388935	0.300951
12.8936	12.6179	0.387733	0.301629
12.8941	12.6174	0.388156	0.302407
12.8945	12.617	0.387494	0.301171
12.895	12.6165	0.387649	0.299143
12.8955	12.616	0.387178	0.301154
12.8959	12.6155	0.386906	0.30164
12.8964	12.6151	0.386076	0.30113
12.8969	12.6146	0.387213	0.300179
12.8974	12.6141	0.387965	0.297947
12.8978	12.6136	0.388183	0.297652
12.8983	12.6132	0.3877	0.299584
12.8988	12.6127	0.386663	0.297841
