# 1304     AichiSR QXAFS
# Start     : 8.9544
# End       : 9.0544
# Dir       : Forward
# Points    : 300
# ScanTime  : 1.01549
# Date      : 13.04.23 22:20
# Ring Cur. : 25.6[mA]
12.7557	12.7557	0.401743	1.2223
12.7562	12.7552	0.402213	1.22296
12.7566	12.7548	0.399897	1.22299
12.7571	12.7543	0.401051	1.22238
12.7576	12.7538	0.398909	1.21719
12.7581	12.7533	0.399177	1.21508
12.7585	12.7529	0.400453	1.22096
12.759	12.7524	0.399482	1.21929
12.7595	12.752	0.400678	1.21791
12.7599	12.7515	0.398764	1.21485
12.7604	12.751	0.400626	1.21831
12.7609	12.7505	0.40091	1.21733
12.7614	12.7501	0.399495	1.22039
12.7618	12.7496	0.39911	1.21583
12.7623	12.7491	0.398232	1.20971
12.7628	12.7487	0.400389	1.21236
12.7632	12.7482	0.39968	1.21593
12.7637	12.7477	0.399099	1.21316
12.7642	12.7473	0.398128	1.20929
12.7647	12.7468	0.398563	1.21134
12.7651	12.7463	0.399082	1.21171
12.7656	12.7458	0.399242	1.21137
12.7661	12.7454	0.397797	1.21292
12.7666	12.7449	0.397871	1.2111
12.767	12.7444	0.397324	1.20974
12.7675	12.7439	0.398515	1.20639
12.768	12.7435	0.397355	1.21002
12.7684	12.743	0.397028	1.20967
12.7689	12.7425	0.395165	1.20663
12.7694	12.7421	0.396092	1.20496
12.7699	12.7416	0.398517	1.20381
12.7703	12.7411	0.397568	1.20694
12.7708	12.7406	0.399283	1.20536
12.7713	12.7402	0.396526	1.19998
12.7717	12.7397	0.395697	1.2004
12.7722	12.7392	0.397199	1.19827
12.7727	12.7388	0.397116	1.20398
12.7732	12.7383	0.396247	1.2009
12.7736	12.7378	0.396413	1.19603
12.7741	12.7374	0.396073	1.19581
12.7746	12.7369	0.397769	1.19365
12.7751	12.7364	0.396098	1.1952
12.7755	12.7359	0.396331	1.19438
12.776	12.7354	0.395272	1.19251
12.7765	12.735	0.394677	1.18824
12.7769	12.7345	0.395208	1.1859
12.7774	12.734	0.396811	1.18848
12.7779	12.7335	0.394528	1.18369
12.7784	12.733	0.394697	1.18059
12.7788	12.7326	0.393838	1.17771
12.7793	12.7321	0.396715	1.17766
12.7798	12.7317	0.394782	1.17399
12.7802	12.7312	0.393788	1.17086
12.7807	12.7307	0.394054	1.16698
12.7812	12.7302	0.393126	1.16178
12.7817	12.7297	0.393836	1.1617
12.7821	12.7293	0.39477	1.15936
12.7826	12.7288	0.393247	1.15254
12.7831	12.7284	0.393075	1.1398
12.7836	12.7279	0.390556	1.13226
12.784	12.7274	0.394042	1.12518
12.7845	12.7269	0.392978	1.11252
12.785	12.7265	0.39152	1.09513
12.7854	12.726	0.389539	1.06974
12.7859	12.7255	0.389575	1.04135
12.7864	12.725	0.393597	1.01631
12.7869	12.7245	0.389548	0.971495
12.7873	12.7241	0.388323	0.906847
12.7878	12.7236	0.388391	0.84358
12.7883	12.7231	0.390773	0.780518
12.7887	12.7227	0.39189	0.728629
12.7892	12.7222	0.392663	0.68496
12.7897	12.7218	0.392682	0.65164
12.7902	12.7213	0.393726	0.62756
12.7906	12.7208	0.392031	0.612416
12.7911	12.7203	0.39211	0.605894
12.7916	12.7199	0.392807	0.607644
12.7921	12.7194	0.392528	0.612264
12.7925	12.7189	0.391343	0.613283
12.793	12.7185	0.389881	0.61513
12.7935	12.718	0.392789	0.622444
12.7939	12.7175	0.393589	0.624209
12.7944	12.7171	0.390557	0.623405
12.7949	12.7166	0.392102	0.612813
12.7954	12.7161	0.391743	0.602772
12.7958	12.7156	0.392438	0.591983
12.7963	12.7151	0.393607	0.58467
12.7968	12.7147	0.391937	0.573982
12.7972	12.7142	0.391114	0.560741
12.7977	12.7137	0.393283	0.548958
12.7982	12.7132	0.393504	0.541093
12.7987	12.7128	0.393907	0.534564
12.7991	12.7123	0.391353	0.523286
12.7996	12.7118	0.392597	0.510188
12.8001	12.7114	0.39294	0.49693
12.8006	12.7109	0.393471	0.483408
12.801	12.7104	0.394533	0.471408
12.8015	12.7099	0.392848	0.456726
12.802	12.7095	0.393369	0.437528
12.8024	12.709	0.394235	0.420621
12.8029	12.7085	0.394167	0.405497
12.8034	12.7081	0.394492	0.388966
12.8039	12.7076	0.393475	0.373122
12.8043	12.7071	0.394124	0.357234
12.8048	12.7066	0.392752	0.341655
12.8053	12.7062	0.393349	0.329173
12.8057	12.7057	0.395437	0.319549
12.8062	12.7052	0.393494	0.309016
12.8067	12.7047	0.394056	0.29715
12.8072	12.7042	0.394843	0.288981
12.8076	12.7038	0.394996	0.285142
12.8081	12.7033	0.397186	0.281696
12.8086	12.7028	0.393294	0.278797
12.8091	12.7024	0.393935	0.276887
12.8095	12.7019	0.395584	0.276117
12.81	12.7014	0.395547	0.280142
12.8105	12.7009	0.395991	0.284272
12.8109	12.7005	0.39429	0.288529
12.8114	12.7	0.394756	0.291067
12.8119	12.6995	0.394409	0.295709
12.8124	12.6991	0.394123	0.299293
12.8128	12.6986	0.394831	0.30655
12.8133	12.6981	0.393779	0.309196
12.8138	12.6977	0.395295	0.312224
12.8142	12.6972	0.395114	0.31466
12.8147	12.6967	0.395063	0.319489
12.8152	12.6962	0.396328	0.321413
12.8157	12.6958	0.396135	0.321376
12.8161	12.6953	0.394762	0.320428
12.8166	12.6948	0.39413	0.31785
12.8171	12.6943	0.397052	0.31631
12.8176	12.6939	0.395174	0.31349
12.818	12.6934	0.393162	0.308711
12.8185	12.6929	0.395198	0.302617
12.819	12.6925	0.395778	0.297399
12.8194	12.692	0.395325	0.291819
12.8199	12.6915	0.396076	0.287183
12.8204	12.6911	0.394947	0.281913
12.8209	12.6906	0.394392	0.277044
12.8213	12.6901	0.395892	0.272377
12.8218	12.6897	0.394933	0.271156
12.8223	12.6892	0.396006	0.273492
12.8227	12.6887	0.394612	0.272707
12.8232	12.6883	0.393321	0.273209
12.8237	12.6878	0.395238	0.275694
12.8242	12.6873	0.39484	0.280334
12.8246	12.6868	0.396479	0.28554
12.8251	12.6864	0.393711	0.288158
12.8256	12.6859	0.394066	0.291163
12.8261	12.6854	0.393786	0.295143
12.8265	12.6849	0.394984	0.298838
12.827	12.6844	0.394223	0.305509
12.8275	12.684	0.393405	0.308358
12.8279	12.6835	0.392243	0.308588
12.8284	12.683	0.392869	0.311229
12.8289	12.6826	0.394848	0.315821
12.8294	12.6821	0.394448	0.320035
12.8298	12.6816	0.394003	0.322646
12.8303	12.6812	0.395275	0.324734
12.8308	12.6807	0.394656	0.32807
12.8312	12.6802	0.39605	0.331683
12.8317	12.6797	0.394839	0.335026
12.8322	12.6793	0.394688	0.337132
12.8327	12.6788	0.395274	0.337866
12.8331	12.6783	0.395291	0.338765
12.8336	12.6779	0.396846	0.340686
12.8341	12.6774	0.395069	0.341423
12.8346	12.6769	0.39523	0.341649
12.835	12.6764	0.394705	0.339558
12.8355	12.6759	0.396421	0.340011
12.836	12.6755	0.397253	0.341068
12.8364	12.675	0.39715	0.342128
12.8369	12.6745	0.394121	0.339011
12.8374	12.674	0.39609	0.337204
12.8379	12.6735	0.395883	0.33574
12.8383	12.6731	0.396797	0.334303
12.8388	12.6726	0.396418	0.336364
12.8393	12.6722	0.396257	0.332487
12.8397	12.6717	0.395236	0.329842
12.8402	12.6712	0.39643	0.327889
12.8407	12.6707	0.395099	0.32691
12.8412	12.6703	0.396917	0.326873
12.8416	12.6698	0.393983	0.323492
12.8421	12.6693	0.394048	0.320258
12.8426	12.6689	0.397461	0.316214
12.8431	12.6684	0.39534	0.315494
12.8435	12.6679	0.395726	0.314382
12.844	12.6675	0.3944	0.310944
12.8445	12.667	0.395392	0.306611
12.8449	12.6665	0.395839	0.303621
12.8454	12.666	0.394773	0.302403
12.8459	12.6656	0.39558	0.301931
12.8464	12.6651	0.394923	0.299984
12.8468	12.6646	0.394428	0.295956
12.8473	12.6641	0.395094	0.29234
12.8478	12.6637	0.395577	0.291785
12.8482	12.6632	0.394425	0.291012
12.8487	12.6627	0.393749	0.288367
12.8492	12.6623	0.393386	0.285161
12.8497	12.6618	0.396349	0.282817
12.8501	12.6613	0.395222	0.281722
12.8506	12.6609	0.392758	0.280898
12.8511	12.6604	0.394338	0.279022
12.8516	12.6599	0.392145	0.276035
12.852	12.6594	0.394093	0.27344
12.8525	12.659	0.39304	0.272817
12.853	12.6585	0.393353	0.27329
12.8534	12.6581	0.392289	0.27161
12.8539	12.6576	0.391066	0.269822
12.8544	12.6571	0.393877	0.2697
12.8549	12.6566	0.3936	0.270744
12.8553	12.6561	0.393624	0.271265
12.8558	12.6557	0.392294	0.271912
12.8563	12.6552	0.392864	0.27196
12.8567	12.6547	0.393087	0.273734
12.8572	12.6542	0.392101	0.274758
12.8577	12.6537	0.394581	0.279409
12.8582	12.6533	0.393123	0.279387
12.8586	12.6528	0.392007	0.280134
12.8591	12.6523	0.394921	0.283683
12.8596	12.6519	0.394418	0.28611
12.8601	12.6514	0.392013	0.289748
12.8605	12.6509	0.393535	0.29151
12.861	12.6504	0.392718	0.292321
12.8615	12.65	0.394172	0.294316
12.8619	12.6495	0.393174	0.298214
12.8624	12.649	0.392762	0.302251
12.8629	12.6486	0.392014	0.302185
12.8634	12.6481	0.390884	0.303153
12.8638	12.6476	0.392507	0.305775
12.8643	12.6471	0.391911	0.308066
12.8648	12.6467	0.38936	0.308902
12.8652	12.6462	0.389693	0.309956
12.8657	12.6457	0.387759	0.308833
12.8662	12.6452	0.389356	0.311127
12.8667	12.6447	0.387842	0.312731
12.8671	12.6443	0.387916	0.31367
12.8676	12.6438	0.388068	0.314719
12.8681	12.6433	0.389835	0.314625
12.8686	12.6429	0.390525	0.316336
12.869	12.6424	0.39109	0.319203
12.8695	12.642	0.390968	0.320084
12.87	12.6415	0.391011	0.318953
12.8704	12.641	0.391978	0.318665
12.8709	12.6405	0.392377	0.318349
12.8714	12.6401	0.391214	0.319441
12.8719	12.6396	0.391354	0.319251
12.8723	12.6391	0.391746	0.318706
12.8728	12.6387	0.390161	0.315773
12.8733	12.6382	0.390485	0.315298
12.8737	12.6377	0.391167	0.316414
12.8742	12.6373	0.389466	0.316211
12.8747	12.6368	0.390339	0.314021
12.8752	12.6363	0.387985	0.312396
12.8756	12.6358	0.390408	0.312833
12.8761	12.6354	0.389442	0.311793
12.8766	12.6349	0.38877	0.312771
12.8771	12.6344	0.389327	0.31212
12.8775	12.6339	0.38949	0.309264
12.878	12.6335	0.391154	0.310099
12.8785	12.633	0.391654	0.311372
12.8789	12.6325	0.388833	0.310352
12.8794	12.6321	0.389183	0.310217
12.8799	12.6316	0.388432	0.308813
12.8804	12.6311	0.389038	0.308704
12.8808	12.6306	0.387516	0.310042
12.8813	12.6302	0.389821	0.311395
12.8818	12.6297	0.389784	0.310426
12.8822	12.6292	0.388694	0.309159
12.8827	12.6288	0.389566	0.310995
12.8832	12.6283	0.390215	0.311927
12.8837	12.6278	0.389141	0.312177
12.8841	12.6273	0.388766	0.310949
12.8846	12.6269	0.387093	0.308908
12.8851	12.6264	0.389359	0.309084
12.8856	12.6259	0.386989	0.308914
12.886	12.6254	0.388143	0.309185
12.8865	12.6249	0.388766	0.307776
12.887	12.6245	0.387543	0.306179
12.8874	12.624	0.389513	0.30605
12.8879	12.6235	0.387899	0.305204
12.8884	12.623	0.38638	0.305296
12.8889	12.6226	0.386645	0.304352
12.8893	12.6221	0.388219	0.303251
12.8898	12.6217	0.387814	0.302221
12.8903	12.6212	0.388778	0.303053
12.8907	12.6207	0.387263	0.302966
12.8912	12.6202	0.386862	0.301856
12.8917	12.6197	0.387203	0.298355
12.8922	12.6193	0.387358	0.300953
12.8926	12.6188	0.386883	0.302687
12.8931	12.6183	0.385838	0.302045
12.8936	12.6179	0.386089	0.301024
12.8941	12.6174	0.387235	0.300188
12.8945	12.6169	0.385827	0.29799
12.895	12.6164	0.384681	0.300281
12.8955	12.616	0.385479	0.301848
12.8959	12.6155	0.384495	0.299274
12.8964	12.615	0.384709	0.298281
12.8969	12.6145	0.386813	0.298208
12.8974	12.6141	0.386374	0.299757
12.8978	12.6136	0.383951	0.299464
12.8983	12.6131	0.38504	0.297308
12.8988	12.6127	0.385306	0.29645
