# 1304     AichiSR QXAFS
# Start     : 8.9544
# End       : 9.0544
# Dir       : Forward
# Points    : 300
# ScanTime  : 1.01549
# Date      : 13.04.23 22:32
# Ring Cur. : 25.6[mA]
12.7557	12.7558	0.405937	1.24386
12.7562	12.7553	0.405554	1.23992
12.7566	12.7548	0.407035	1.23648
12.7571	12.7543	0.407536	1.23865
12.7576	12.7539	0.406753	1.24285
12.7581	12.7534	0.406866	1.24221
12.7585	12.7529	0.40661	1.24001
12.759	12.7525	0.405568	1.23843
12.7595	12.752	0.406801	1.23941
12.7599	12.7516	0.407789	1.24137
12.7604	12.7511	0.405639	1.23978
12.7609	12.7506	0.406176	1.23723
12.7614	12.7501	0.404617	1.23475
12.7618	12.7497	0.406719	1.23491
12.7623	12.7492	0.407441	1.2364
12.7628	12.7487	0.404752	1.23802
12.7632	12.7483	0.405278	1.23726
12.7637	12.7478	0.40715	1.23208
12.7642	12.7473	0.405912	1.23366
12.7647	12.7469	0.406701	1.23754
12.7651	12.7464	0.406372	1.23465
12.7656	12.7459	0.405692	1.23292
12.7661	12.7454	0.404964	1.23202
12.7666	12.745	0.406511	1.23194
12.767	12.7445	0.408473	1.23494
12.7675	12.744	0.405237	1.23474
12.768	12.7435	0.404267	1.23217
12.7684	12.7431	0.405762	1.23006
12.7689	12.7426	0.406334	1.23017
12.7694	12.7421	0.406101	1.23252
12.7699	12.7417	0.404566	1.23107
12.7703	12.7412	0.40476	1.22696
12.7708	12.7407	0.405774	1.22416
12.7713	12.7402	0.406084	1.22692
12.7717	12.7398	0.406662	1.22843
12.7722	12.7393	0.404262	1.2271
12.7727	12.7388	0.405587	1.22426
12.7732	12.7384	0.404451	1.22455
12.7736	12.7379	0.405435	1.22229
12.7741	12.7374	0.406485	1.2239
12.7746	12.737	0.40276	1.2245
12.7751	12.7365	0.403527	1.21868
12.7755	12.736	0.404064	1.21656
12.776	12.7355	0.40414	1.21566
12.7765	12.735	0.403932	1.21523
12.7769	12.7345	0.404368	1.21463
12.7774	12.7341	0.403133	1.21206
12.7779	12.7336	0.403897	1.21004
12.7784	12.7331	0.403803	1.20901
12.7788	12.7327	0.404172	1.20933
12.7793	12.7322	0.403891	1.20492
12.7798	12.7317	0.4024	1.20243
12.7802	12.7313	0.403653	1.19978
12.7807	12.7308	0.403989	1.19595
12.7812	12.7303	0.403247	1.19269
12.7817	12.7298	0.401928	1.18945
12.7821	12.7294	0.403449	1.18204
12.7826	12.7289	0.403725	1.17565
12.7831	12.7284	0.402971	1.1712
12.7836	12.728	0.403811	1.16637
12.784	12.7275	0.400394	1.1579
12.7845	12.727	0.400841	1.14406
12.785	12.7265	0.400596	1.12568
12.7854	12.7261	0.400649	1.10644
12.7859	12.7256	0.399873	1.08251
12.7864	12.7251	0.394608	1.04557
12.7869	12.7246	0.396165	0.996931
12.7873	12.7241	0.396791	0.941301
12.7878	12.7237	0.399767	0.883499
12.7883	12.7232	0.399962	0.8204
12.7887	12.7227	0.400022	0.760546
12.7892	12.7223	0.401293	0.709351
12.7897	12.7218	0.403209	0.670504
12.7902	12.7214	0.401597	0.644633
12.7906	12.7209	0.403149	0.629879
12.7911	12.7204	0.400975	0.62404
12.7916	12.7199	0.400383	0.620389
12.7921	12.7195	0.400757	0.621336
12.7925	12.719	0.401514	0.627679
12.793	12.7185	0.402038	0.635079
12.7935	12.7181	0.400416	0.638947
12.7939	12.7176	0.399895	0.637898
12.7944	12.7171	0.401965	0.635891
12.7949	12.7166	0.401283	0.630714
12.7954	12.7162	0.401181	0.623417
12.7958	12.7157	0.39888	0.611149
12.7963	12.7152	0.399894	0.594493
12.7968	12.7147	0.401448	0.587283
12.7972	12.7143	0.400365	0.577487
12.7977	12.7138	0.401021	0.569187
12.7982	12.7133	0.399792	0.557477
12.7987	12.7128	0.400427	0.5474
12.7991	12.7124	0.401997	0.53272
12.7996	12.7119	0.401565	0.524938
12.8001	12.7115	0.401158	0.512226
12.8006	12.711	0.39953	0.496713
12.801	12.7105	0.401356	0.479933
12.8015	12.71	0.39984	0.464896
12.802	12.7095	0.400248	0.450569
12.8024	12.7091	0.399688	0.435543
12.8029	12.7086	0.400255	0.418865
12.8034	12.7082	0.398429	0.397442
12.8039	12.7077	0.398439	0.381748
12.8043	12.7072	0.401532	0.368866
12.8048	12.7067	0.39961	0.353418
12.8053	12.7062	0.399397	0.339627
12.8057	12.7058	0.398459	0.325678
12.8062	12.7053	0.399816	0.313025
12.8067	12.7048	0.399026	0.30444
12.8072	12.7043	0.398824	0.297936
12.8076	12.7038	0.399103	0.291578
12.8081	12.7034	0.398827	0.283389
12.8086	12.7029	0.398532	0.28092
12.8091	12.7024	0.39962	0.28103
12.8095	12.702	0.398097	0.281223
12.81	12.7015	0.398546	0.281944
12.8105	12.701	0.39776	0.284734
12.8109	12.7005	0.398568	0.287182
12.8114	12.7001	0.398831	0.292494
12.8119	12.6996	0.399624	0.299231
12.8124	12.6991	0.398071	0.303456
12.8128	12.6987	0.397646	0.305475
12.8133	12.6982	0.400266	0.310156
12.8138	12.6977	0.398727	0.315198
12.8142	12.6973	0.397843	0.318808
12.8147	12.6968	0.397838	0.320792
12.8152	12.6963	0.3964	0.32119
12.8157	12.6958	0.397719	0.320472
12.8161	12.6954	0.397261	0.322055
12.8166	12.6949	0.397193	0.322033
12.8171	12.6944	0.395596	0.319633
12.8176	12.6939	0.396181	0.314855
12.818	12.6935	0.39613	0.310191
12.8185	12.693	0.396156	0.306753
12.819	12.6925	0.397262	0.301738
12.8194	12.6921	0.396692	0.295486
12.8199	12.6916	0.396556	0.286725
12.8204	12.6912	0.396906	0.282978
12.8209	12.6907	0.395888	0.278814
12.8213	12.6902	0.394869	0.276785
12.8218	12.6897	0.394878	0.273778
12.8223	12.6893	0.394302	0.271137
12.8227	12.6888	0.395902	0.272315
12.8232	12.6883	0.395198	0.27376
12.8237	12.6879	0.39494	0.277341
12.8242	12.6874	0.393271	0.27846
12.8246	12.6869	0.392712	0.281825
12.8251	12.6864	0.39675	0.287139
12.8256	12.686	0.393339	0.289908
12.8261	12.6855	0.39297	0.296117
12.8265	12.685	0.392906	0.298612
12.827	12.6845	0.391956	0.300808
12.8275	12.684	0.39235	0.304117
12.8279	12.6836	0.3927	0.309513
12.8284	12.6831	0.390377	0.312252
12.8289	12.6826	0.391249	0.314379
12.8294	12.6822	0.391647	0.315096
12.8298	12.6817	0.394327	0.31917
12.8303	12.6812	0.392592	0.323169
12.8308	12.6807	0.392704	0.327618
12.8312	12.6803	0.394195	0.328589
12.8317	12.6798	0.393582	0.33024
12.8322	12.6793	0.397556	0.334829
12.8327	12.6789	0.398574	0.340832
12.8331	12.6784	0.394238	0.340762
12.8336	12.6779	0.394083	0.339353
12.8341	12.6775	0.3931	0.33905
12.8346	12.677	0.395837	0.339532
12.835	12.6765	0.393219	0.340037
12.8355	12.676	0.391762	0.340076
12.836	12.6755	0.394844	0.337909
12.8364	12.675	0.394033	0.337014
12.8369	12.6746	0.393557	0.336288
12.8374	12.6741	0.394283	0.338291
12.8379	12.6736	0.392892	0.336182
12.8383	12.6731	0.394408	0.33354
12.8388	12.6727	0.393087	0.331029
12.8393	12.6722	0.395031	0.330926
12.8397	12.6718	0.393714	0.330496
12.8402	12.6713	0.393118	0.329715
12.8407	12.6708	0.392871	0.326108
12.8412	12.6703	0.392154	0.321578
12.8416	12.6699	0.393239	0.321622
12.8421	12.6694	0.394067	0.319877
12.8426	12.6689	0.393408	0.318202
12.8431	12.6685	0.392169	0.314186
12.8435	12.668	0.393126	0.3124
12.844	12.6675	0.394355	0.309428
12.8445	12.6671	0.393873	0.309024
12.8449	12.6666	0.393965	0.306695
12.8454	12.6661	0.393247	0.303459
12.8459	12.6656	0.393035	0.299899
12.8464	12.6652	0.395593	0.297754
12.8468	12.6647	0.394293	0.298142
12.8473	12.6642	0.393243	0.295027
12.8478	12.6637	0.396726	0.291785
12.8482	12.6633	0.394058	0.289263
12.8487	12.6628	0.396015	0.287846
12.8492	12.6623	0.394498	0.286428
12.8497	12.6619	0.394439	0.285283
12.8501	12.6614	0.395208	0.281417
12.8506	12.6609	0.394207	0.278168
12.8511	12.6605	0.39429	0.278464
12.8516	12.66	0.394796	0.277778
12.852	12.6595	0.39298	0.276271
12.8525	12.6591	0.392678	0.273381
12.853	12.6586	0.395667	0.271581
12.8534	12.6581	0.394443	0.270982
12.8539	12.6577	0.395438	0.273414
12.8544	12.6572	0.392465	0.273352
12.8549	12.6567	0.392934	0.271241
12.8553	12.6562	0.394092	0.270129
12.8558	12.6557	0.394577	0.271253
12.8563	12.6553	0.394923	0.273927
12.8567	12.6548	0.394575	0.277371
12.8572	12.6543	0.394695	0.27713
12.8577	12.6538	0.395731	0.27703
12.8582	12.6534	0.395835	0.279777
12.8586	12.6529	0.394962	0.284188
12.8591	12.6524	0.394835	0.285848
12.8596	12.652	0.396794	0.287276
12.8601	12.6515	0.395419	0.288804
12.8605	12.651	0.39748	0.291045
12.861	12.6505	0.397348	0.294794
12.8615	12.65	0.394684	0.296969
12.8619	12.6496	0.394634	0.29799
12.8624	12.6491	0.396179	0.301193
12.8629	12.6486	0.3963	0.303965
12.8634	12.6482	0.396414	0.30824
12.8638	12.6477	0.393536	0.307858
12.8643	12.6472	0.393388	0.309683
12.8648	12.6467	0.396257	0.309053
12.8652	12.6463	0.393733	0.312765
12.8657	12.6458	0.394375	0.313366
12.8662	12.6453	0.39097	0.315261
12.8667	12.6448	0.391531	0.315527
12.8671	12.6443	0.394647	0.31569
12.8676	12.6439	0.394194	0.318857
12.8681	12.6434	0.39486	0.321239
12.8686	12.6429	0.394178	0.321814
12.869	12.6425	0.395569	0.321602
12.8695	12.642	0.396636	0.321699
12.87	12.6416	0.396431	0.322168
12.8704	12.6411	0.397246	0.325095
12.8709	12.6406	0.39605	0.324497
12.8714	12.6401	0.395998	0.322032
12.8719	12.6397	0.396389	0.321917
12.8723	12.6392	0.396328	0.321492
12.8728	12.6387	0.397238	0.323079
12.8733	12.6383	0.396754	0.322601
12.8737	12.6378	0.396866	0.320454
12.8742	12.6373	0.396873	0.319925
12.8747	12.6369	0.396293	0.319122
12.8752	12.6364	0.396597	0.319631
12.8756	12.6359	0.395786	0.31976
12.8761	12.6354	0.395069	0.316972
12.8766	12.6349	0.396025	0.315676
12.8771	12.6345	0.396322	0.315429
12.8775	12.634	0.396892	0.317037
12.878	12.6335	0.394662	0.316693
12.8785	12.6331	0.395916	0.315043
12.8789	12.6326	0.39643	0.313786
12.8794	12.6321	0.39689	0.315766
12.8799	12.6317	0.397656	0.315923
12.8804	12.6312	0.395107	0.316605
12.8808	12.6307	0.395898	0.315586
12.8813	12.6302	0.395647	0.315117
12.8818	12.6298	0.395878	0.316286
12.8822	12.6293	0.39632	0.317502
12.8827	12.6288	0.395657	0.31858
12.8832	12.6284	0.395655	0.316213
12.8837	12.6279	0.396084	0.315801
12.8841	12.6274	0.395423	0.316599
12.8846	12.6269	0.396659	0.317515
12.8851	12.6265	0.39516	0.316847
12.8856	12.626	0.393959	0.31481
12.886	12.6255	0.39397	0.314743
12.8865	12.625	0.395098	0.314092
12.887	12.6245	0.395382	0.315079
12.8874	12.6241	0.394651	0.313505
12.8879	12.6236	0.394887	0.311182
12.8884	12.6231	0.396732	0.31047
12.8889	12.6227	0.394315	0.310669
12.8893	12.6222	0.395566	0.310311
12.8898	12.6217	0.395132	0.309058
12.8903	12.6213	0.392733	0.307271
12.8907	12.6208	0.394806	0.306857
12.8912	12.6203	0.394112	0.307428
12.8917	12.6198	0.394983	0.308306
12.8922	12.6193	0.39462	0.307274
12.8926	12.6189	0.395231	0.305971
12.8931	12.6184	0.395862	0.3053
12.8936	12.618	0.39526	0.307576
12.8941	12.6175	0.395667	0.307693
12.8945	12.617	0.394543	0.307263
12.895	12.6165	0.394914	0.304118
12.8955	12.616	0.395237	0.304865
12.8959	12.6156	0.394	0.306551
12.8964	12.6151	0.394699	0.30613
12.8969	12.6146	0.392955	0.30587
12.8974	12.6141	0.393967	0.304271
12.8978	12.6137	0.395221	0.30384
12.8983	12.6132	0.393498	0.305004
12.8988	12.6127	0.3942	0.304717
