# 1304     AichiSR QXAFS
# Start     : 8.9544
# End       : 9.0544
# Dir       : Forward
# Points    : 300
# ScanTime  : 1.01549
# Date      : 13.04.23 22:24
# Ring Cur. : 25.5[mA]
12.7557	12.7557	0.396859	1.20585
12.7562	12.7552	0.397327	1.20892
12.7566	12.7548	0.397113	1.21157
12.7571	12.7543	0.395433	1.20736
12.7576	12.7538	0.396356	1.20762
12.7581	12.7534	0.395371	1.20749
12.7585	12.7529	0.398219	1.20843
12.759	12.7524	0.398097	1.21415
12.7595	12.752	0.39705	1.2124
12.7599	12.7515	0.397172	1.21077
12.7604	12.751	0.39883	1.20899
12.7609	12.7505	0.397878	1.2107
12.7614	12.7501	0.397658	1.21075
12.7618	12.7496	0.397596	1.21155
12.7623	12.7491	0.396704	1.20843
12.7628	12.7487	0.397939	1.20948
12.7632	12.7482	0.399496	1.21247
12.7637	12.7478	0.399406	1.21452
12.7642	12.7473	0.398057	1.21193
12.7647	12.7468	0.397668	1.21041
12.7651	12.7463	0.399342	1.21011
12.7656	12.7459	0.398424	1.21089
12.7661	12.7454	0.398374	1.21481
12.7666	12.7449	0.398336	1.21259
12.767	12.7444	0.398229	1.21047
12.7675	12.7439	0.398116	1.20952
12.768	12.7435	0.398823	1.21096
12.7684	12.743	0.399035	1.21049
12.7689	12.7425	0.397857	1.21116
12.7694	12.7421	0.397795	1.20705
12.7699	12.7416	0.401138	1.20725
12.7703	12.7411	0.399941	1.20875
12.7708	12.7407	0.39943	1.2118
12.7713	12.7402	0.398131	1.20794
12.7717	12.7397	0.399153	1.20562
12.7722	12.7392	0.400489	1.20369
12.7727	12.7388	0.399133	1.20926
12.7732	12.7383	0.398019	1.20877
12.7736	12.7378	0.398745	1.20703
12.7741	12.7374	0.398083	1.2039
12.7746	12.7369	0.401531	1.20523
12.7751	12.7364	0.399529	1.20328
12.7755	12.7359	0.398613	1.20263
12.776	12.7354	0.399693	1.20225
12.7765	12.735	0.399049	1.20053
12.7769	12.7345	0.400508	1.19893
12.7774	12.734	0.399753	1.20152
12.7779	12.7335	0.398804	1.19865
12.7784	12.7331	0.400328	1.19652
12.7788	12.7326	0.398662	1.19343
12.7793	12.7321	0.40131	1.19121
12.7798	12.7317	0.399145	1.19055
12.7802	12.7312	0.399133	1.18788
12.7807	12.7307	0.399091	1.18596
12.7812	12.7302	0.39913	1.17689
12.7817	12.7298	0.400227	1.17643
12.7821	12.7293	0.399223	1.17316
12.7826	12.7288	0.398999	1.16985
12.7831	12.7284	0.397893	1.16125
12.7836	12.7279	0.397083	1.14988
12.784	12.7274	0.399146	1.14115
12.7845	12.7269	0.398327	1.13036
12.785	12.7265	0.397142	1.11758
12.7854	12.726	0.397027	1.09374
12.7859	12.7255	0.395498	1.05946
12.7864	12.725	0.393524	1.02639
12.7869	12.7246	0.394524	0.984682
12.7873	12.7241	0.393423	0.928285
12.7878	12.7236	0.393746	0.864741
12.7883	12.7231	0.395953	0.801678
12.7887	12.7227	0.398659	0.745326
12.7892	12.7222	0.399051	0.700052
12.7897	12.7218	0.397676	0.664813
12.7902	12.7213	0.399171	0.641433
12.7906	12.7208	0.398453	0.6242
12.7911	12.7203	0.399509	0.619093
12.7916	12.7199	0.399451	0.618279
12.7921	12.7194	0.399217	0.623198
12.7925	12.7189	0.40029	0.627004
12.793	12.7185	0.398709	0.627992
12.7935	12.718	0.400645	0.633414
12.7939	12.7175	0.399237	0.634479
12.7944	12.7171	0.397934	0.63493
12.7949	12.7166	0.400197	0.625763
12.7954	12.7161	0.398575	0.614575
12.7958	12.7156	0.399157	0.603813
12.7963	12.7151	0.398346	0.595879
12.7968	12.7147	0.400188	0.586166
12.7972	12.7142	0.399464	0.572443
12.7977	12.7137	0.397314	0.562199
12.7982	12.7132	0.40002	0.552845
12.7987	12.7128	0.399967	0.543665
12.7991	12.7123	0.398744	0.535379
12.7996	12.7119	0.399151	0.519912
12.8001	12.7114	0.398358	0.503505
12.8006	12.7109	0.398549	0.490125
12.801	12.7104	0.401863	0.479938
12.8015	12.71	0.399011	0.464072
12.802	12.7095	0.398068	0.444455
12.8024	12.709	0.398903	0.429094
12.8029	12.7086	0.400653	0.411275
12.8034	12.7081	0.40023	0.396725
12.8039	12.7076	0.398146	0.380908
12.8043	12.7071	0.398269	0.362775
12.8048	12.7067	0.398968	0.346622
12.8053	12.7062	0.399882	0.33442
12.8057	12.7057	0.40037	0.324638
12.8062	12.7052	0.397153	0.313964
12.8067	12.7047	0.399167	0.304025
12.8072	12.7042	0.39883	0.292956
12.8076	12.7038	0.399729	0.287471
12.8081	12.7033	0.40023	0.285779
12.8086	12.7028	0.397562	0.281973
12.8091	12.7024	0.398988	0.280599
12.8095	12.7019	0.399794	0.279505
12.81	12.7014	0.397814	0.282552
12.8105	12.701	0.397382	0.287456
12.8109	12.7005	0.397324	0.290478
12.8114	12.7	0.397544	0.293499
12.8119	12.6995	0.398215	0.29688
12.8124	12.6991	0.398205	0.302748
12.8128	12.6986	0.398885	0.308623
12.8133	12.6982	0.397549	0.311824
12.8138	12.6977	0.39754	0.314858
12.8142	12.6972	0.398428	0.317411
12.8147	12.6967	0.397244	0.318468
12.8152	12.6963	0.397102	0.323376
12.8157	12.6958	0.39626	0.324807
12.8161	12.6953	0.396919	0.321922
12.8166	12.6948	0.39732	0.319921
12.8171	12.6943	0.399014	0.318256
12.8176	12.6939	0.397136	0.316821
12.818	12.6934	0.396334	0.31037
12.8185	12.6929	0.398071	0.306492
12.819	12.6925	0.396306	0.298785
12.8194	12.692	0.398359	0.294349
12.8199	12.6916	0.396269	0.290165
12.8204	12.6911	0.397234	0.283723
12.8209	12.6906	0.395524	0.278161
12.8213	12.6901	0.397016	0.274826
12.8218	12.6897	0.397833	0.273458
12.8223	12.6892	0.397833	0.27283
12.8227	12.6887	0.395324	0.274235
12.8232	12.6883	0.395603	0.274599
12.8237	12.6878	0.396665	0.275943
12.8242	12.6873	0.395457	0.28005
12.8246	12.6868	0.396246	0.284158
12.8251	12.6864	0.394167	0.288981
12.8256	12.6859	0.394135	0.291704
12.8261	12.6854	0.395107	0.295113
12.8265	12.6849	0.393045	0.299527
12.827	12.6844	0.394514	0.304548
12.8275	12.684	0.391191	0.306658
12.8279	12.6835	0.392943	0.309372
12.8284	12.683	0.39474	0.311426
12.8289	12.6826	0.393678	0.315617
12.8294	12.6821	0.393859	0.320783
12.8298	12.6816	0.394415	0.323077
12.8303	12.6812	0.39502	0.324897
12.8308	12.6807	0.396478	0.327407
12.8312	12.6802	0.395798	0.331523
12.8317	12.6797	0.394893	0.334538
12.8322	12.6793	0.394846	0.337669
12.8327	12.6788	0.394866	0.336543
12.8331	12.6783	0.395844	0.339443
12.8336	12.6779	0.397643	0.340049
12.8341	12.6774	0.396186	0.343374
12.8346	12.6769	0.394945	0.342069
12.835	12.6764	0.394775	0.341368
12.8355	12.6759	0.396478	0.33886
12.836	12.6755	0.395013	0.34088
12.8364	12.675	0.395118	0.339207
12.8369	12.6745	0.394534	0.338227
12.8374	12.674	0.394008	0.336086
12.8379	12.6736	0.394045	0.334904
12.8383	12.6731	0.395858	0.334529
12.8388	12.6726	0.394615	0.335129
12.8393	12.6722	0.393291	0.331898
12.8397	12.6717	0.39333	0.328633
12.8402	12.6712	0.396102	0.327748
12.8407	12.6707	0.396084	0.327346
12.8412	12.6703	0.393821	0.326269
12.8416	12.6698	0.393802	0.323587
12.8421	12.6693	0.394695	0.319465
12.8426	12.6689	0.394808	0.31629
12.8431	12.6684	0.39416	0.315009
12.8435	12.668	0.394763	0.313717
12.844	12.6675	0.393551	0.310203
12.8445	12.667	0.39376	0.305947
12.8449	12.6665	0.395126	0.30343
12.8454	12.666	0.393636	0.302134
12.8459	12.6656	0.393038	0.301115
12.8464	12.6651	0.392298	0.297715
12.8468	12.6646	0.394185	0.295229
12.8473	12.6641	0.396097	0.291878
12.8478	12.6637	0.392643	0.290112
12.8482	12.6632	0.394629	0.290075
12.8487	12.6627	0.391454	0.288081
12.8492	12.6623	0.392567	0.283291
12.8497	12.6618	0.393342	0.281395
12.8501	12.6614	0.392922	0.280857
12.8506	12.6609	0.392724	0.279436
12.8511	12.6604	0.392892	0.276609
12.8516	12.6599	0.391905	0.273626
12.852	12.6595	0.39335	0.273249
12.8525	12.659	0.392234	0.271693
12.853	12.6585	0.391095	0.272262
12.8534	12.6581	0.390662	0.270598
12.8539	12.6576	0.391134	0.268231
12.8544	12.6571	0.39193	0.269253
12.8549	12.6566	0.390574	0.269539
12.8553	12.6562	0.392013	0.270183
12.8558	12.6557	0.391615	0.271156
12.8563	12.6552	0.390065	0.269544
12.8567	12.6547	0.392665	0.272753
12.8572	12.6542	0.391857	0.274693
12.8577	12.6538	0.39244	0.278997
12.8582	12.6533	0.391555	0.2795
12.8586	12.6528	0.391088	0.279504
12.8591	12.6524	0.391328	0.28158
12.8596	12.6519	0.39061	0.284708
12.8601	12.6514	0.391865	0.287393
12.8605	12.6509	0.390208	0.289236
12.861	12.6505	0.39073	0.290392
12.8615	12.65	0.391775	0.292919
12.8619	12.6495	0.391884	0.297255
12.8624	12.6491	0.391557	0.30013
12.8629	12.6486	0.390994	0.300976
12.8634	12.6481	0.388588	0.300724
12.8638	12.6476	0.389998	0.303946
12.8643	12.6472	0.389875	0.305245
12.8648	12.6467	0.386863	0.307661
12.8652	12.6462	0.386874	0.306265
12.8657	12.6457	0.385772	0.307048
12.8662	12.6452	0.387686	0.308362
12.8667	12.6448	0.386514	0.31148
12.8671	12.6443	0.387584	0.312946
12.8676	12.6438	0.387632	0.313159
12.8681	12.6433	0.388001	0.312594
12.8686	12.6429	0.38759	0.314898
12.869	12.6424	0.389012	0.318457
12.8695	12.642	0.387561	0.317723
12.87	12.6415	0.388343	0.317075
12.8704	12.641	0.388497	0.317608
12.8709	12.6405	0.390027	0.317811
12.8714	12.6401	0.387692	0.317382
12.8719	12.6396	0.388152	0.317639
12.8723	12.6391	0.389413	0.31587
12.8728	12.6387	0.388476	0.314653
12.8733	12.6382	0.388523	0.314009
12.8737	12.6377	0.386884	0.314922
12.8742	12.6373	0.385547	0.312969
12.8747	12.6368	0.386501	0.312227
12.8752	12.6363	0.387189	0.309951
12.8756	12.6358	0.388645	0.310924
12.8761	12.6354	0.387603	0.310846
12.8766	12.6349	0.386248	0.309544
12.8771	12.6344	0.386856	0.309404
12.8775	12.6339	0.386772	0.307874
12.878	12.6335	0.386	0.307383
12.8785	12.633	0.387069	0.308985
12.8789	12.6325	0.387048	0.307739
12.8794	12.6321	0.385808	0.306745
12.8799	12.6316	0.385823	0.305331
12.8804	12.6311	0.386594	0.305902
12.8808	12.6306	0.385534	0.309347
12.8813	12.6302	0.385753	0.308454
12.8818	12.6297	0.385946	0.307425
12.8822	12.6292	0.38415	0.306359
12.8827	12.6288	0.386218	0.308303
12.8832	12.6283	0.385863	0.309268
12.8837	12.6278	0.384312	0.307762
12.8841	12.6274	0.386121	0.307319
12.8846	12.6269	0.386746	0.305643
12.8851	12.6264	0.3841	0.30657
12.8856	12.6259	0.386394	0.307638
12.886	12.6254	0.385216	0.306618
12.8865	12.625	0.384265	0.304895
12.887	12.6245	0.384604	0.303188
12.8874	12.624	0.389422	0.306793
12.8879	12.6235	0.388391	0.307574
12.8884	12.6231	0.383752	0.303578
12.8889	12.6226	0.385534	0.301281
12.8893	12.6221	0.385497	0.299919
12.8898	12.6217	0.386002	0.299878
12.8903	12.6212	0.384508	0.300622
12.8907	12.6207	0.384942	0.300574
12.8912	12.6202	0.383959	0.298568
12.8917	12.6198	0.385082	0.297539
12.8922	12.6193	0.38434	0.297634
12.8926	12.6188	0.384156	0.299848
12.8931	12.6184	0.382021	0.298329
12.8936	12.6179	0.381828	0.297223
12.8941	12.6174	0.383023	0.297374
12.8945	12.6169	0.384029	0.297125
12.895	12.6165	0.383903	0.298722
12.8955	12.616	0.382406	0.298338
12.8959	12.6155	0.384004	0.295921
12.8964	12.615	0.383566	0.296488
12.8969	12.6145	0.384113	0.297323
12.8974	12.6141	0.38491	0.298468
12.8978	12.6136	0.381606	0.297103
12.8983	12.6131	0.38223	0.295277
12.8988	12.6127	0.384235	0.294023
