# 1304     AichiSR QXAFS
# Start     : 8.9544
# End       : 9.0544
# Dir       : Forward
# Points    : 300
# ScanTime  : 1.01549
# Date      : 13.04.23 22:30
# Ring Cur. : 25.6[mA]
12.7557	12.7558	0.40494	1.23117
12.7562	12.7553	0.405837	1.23237
12.7566	12.7548	0.40286	1.2294
12.7571	12.7543	0.402614	1.22894
12.7576	12.7539	0.40275	1.22795
12.7581	12.7534	0.402724	1.2237
12.7585	12.7529	0.402918	1.23039
12.759	12.7525	0.401451	1.23065
12.7595	12.752	0.402436	1.2252
12.7599	12.7516	0.404351	1.22506
12.7604	12.7511	0.40352	1.226
12.7609	12.7506	0.403454	1.2283
12.7614	12.7501	0.400666	1.2232
12.7618	12.7497	0.401499	1.22375
12.7623	12.7492	0.402194	1.22219
12.7628	12.7487	0.401645	1.22423
12.7632	12.7483	0.402788	1.22443
12.7637	12.7478	0.400388	1.22423
12.7642	12.7473	0.400513	1.22067
12.7647	12.7469	0.402409	1.22124
12.7651	12.7464	0.40282	1.2213
12.7656	12.7459	0.401471	1.22238
12.7661	12.7454	0.400317	1.22264
12.7666	12.7449	0.400802	1.21914
12.767	12.7445	0.402852	1.21769
12.7675	12.744	0.401571	1.21681
12.768	12.7435	0.40191	1.21944
12.7684	12.7431	0.400352	1.21649
12.7689	12.7426	0.399225	1.21267
12.7694	12.7421	0.401013	1.21164
12.7699	12.7417	0.400855	1.21772
12.7703	12.7412	0.400677	1.21526
12.7708	12.7407	0.398262	1.2138
12.7713	12.7402	0.400102	1.21101
12.7717	12.7398	0.400691	1.2088
12.7722	12.7393	0.400166	1.20781
12.7727	12.7388	0.400432	1.21292
12.7732	12.7384	0.399412	1.21125
12.7736	12.7379	0.399091	1.20454
12.7741	12.7374	0.400736	1.20333
12.7746	12.7369	0.399789	1.2072
12.7751	12.7365	0.398315	1.20743
12.7755	12.736	0.398633	1.20369
12.776	12.7355	0.398479	1.19881
12.7765	12.735	0.399727	1.19709
12.7769	12.7345	0.398917	1.19802
12.7774	12.7341	0.39977	1.19995
12.7779	12.7336	0.397171	1.19809
12.7784	12.7331	0.397753	1.18652
12.7788	12.7326	0.397783	1.18686
12.7793	12.7322	0.397848	1.18858
12.7798	12.7317	0.396802	1.18401
12.7802	12.7312	0.396263	1.18119
12.7807	12.7308	0.396987	1.17514
12.7812	12.7303	0.396952	1.17017
12.7817	12.7298	0.3956	1.16795
12.7821	12.7293	0.397598	1.16839
12.7826	12.7289	0.396293	1.16136
12.7831	12.7284	0.39514	1.14804
12.7836	12.7279	0.395971	1.14111
12.784	12.7275	0.395894	1.13334
12.7845	12.727	0.393766	1.12119
12.785	12.7265	0.393282	1.10515
12.7854	12.726	0.39268	1.07917
12.7859	12.7256	0.391124	1.04705
12.7864	12.7251	0.390029	1.01508
12.7869	12.7246	0.392083	0.97065
12.7873	12.7241	0.38832	0.912675
12.7878	12.7237	0.388942	0.843981
12.7883	12.7232	0.390938	0.785495
12.7887	12.7227	0.394652	0.736482
12.7892	12.7223	0.393692	0.68625
12.7897	12.7218	0.39466	0.654251
12.7902	12.7213	0.395055	0.628782
12.7906	12.7209	0.395302	0.61499
12.7911	12.7204	0.395269	0.610852
12.7916	12.7199	0.395593	0.611623
12.7921	12.7195	0.395203	0.612625
12.7925	12.719	0.392836	0.616837
12.793	12.7185	0.393059	0.619545
12.7935	12.7181	0.393005	0.624896
12.7939	12.7176	0.392534	0.626147
12.7944	12.7171	0.392385	0.622608
12.7949	12.7166	0.392955	0.614472
12.7954	12.7162	0.395545	0.608381
12.7958	12.7157	0.397519	0.604223
12.7963	12.7152	0.394155	0.589567
12.7968	12.7147	0.393219	0.577263
12.7972	12.7142	0.392811	0.562555
12.7977	12.7138	0.393095	0.552431
12.7982	12.7133	0.392403	0.544254
12.7987	12.7128	0.392955	0.53298
12.7991	12.7124	0.392921	0.521986
12.7996	12.7119	0.39126	0.509335
12.8001	12.7114	0.393633	0.495005
12.8006	12.711	0.392757	0.483556
12.801	12.7105	0.391494	0.470694
12.8015	12.71	0.393144	0.455746
12.802	12.7095	0.391781	0.437124
12.8024	12.7091	0.393225	0.419143
12.8029	12.7086	0.392762	0.404343
12.8034	12.7081	0.392587	0.391036
12.8039	12.7077	0.392957	0.372413
12.8043	12.7072	0.393429	0.358471
12.8048	12.7067	0.393581	0.342236
12.8053	12.7062	0.393013	0.329798
12.8057	12.7057	0.394027	0.319203
12.8062	12.7053	0.392956	0.306442
12.8067	12.7048	0.39167	0.295177
12.8072	12.7043	0.39375	0.28916
12.8076	12.7038	0.393447	0.284554
12.8081	12.7033	0.392223	0.280196
12.8086	12.7029	0.392829	0.27624
12.8091	12.7024	0.39359	0.275931
12.8095	12.702	0.393932	0.275937
12.81	12.7015	0.39423	0.28034
12.8105	12.701	0.393336	0.28391
12.8109	12.7005	0.394322	0.286613
12.8114	12.7001	0.39351	0.289012
12.8119	12.6996	0.395916	0.295618
12.8124	12.6991	0.394032	0.300806
12.8128	12.6987	0.393013	0.305947
12.8133	12.6982	0.39417	0.308273
12.8138	12.6977	0.39373	0.310569
12.8142	12.6973	0.39539	0.315105
12.8147	12.6968	0.394688	0.318028
12.8152	12.6963	0.393796	0.321091
12.8157	12.6958	0.394945	0.320907
12.8161	12.6954	0.393688	0.319483
12.8166	12.6949	0.397405	0.319431
12.8171	12.6944	0.396266	0.317023
12.8176	12.6939	0.395117	0.314317
12.818	12.6935	0.39553	0.30846
12.8185	12.693	0.394734	0.302893
12.819	12.6925	0.394813	0.296613
12.8194	12.6921	0.395319	0.291688
12.8199	12.6916	0.394374	0.286586
12.8204	12.6911	0.395342	0.281513
12.8209	12.6907	0.395633	0.27568
12.8213	12.6902	0.395035	0.272366
12.8218	12.6897	0.395675	0.273233
12.8223	12.6893	0.394447	0.272443
12.8227	12.6888	0.393807	0.270191
12.8232	12.6883	0.394912	0.273676
12.8237	12.6879	0.396792	0.275971
12.8242	12.6874	0.394927	0.279744
12.8246	12.6869	0.393688	0.285219
12.8251	12.6864	0.393848	0.289124
12.8256	12.6859	0.39344	0.291273
12.8261	12.6855	0.39353	0.295015
12.8265	12.685	0.394668	0.301626
12.827	12.6845	0.392427	0.30533
12.8275	12.684	0.392907	0.305793
12.8279	12.6835	0.393297	0.309272
12.8284	12.6831	0.393822	0.31247
12.8289	12.6826	0.392336	0.316807
12.8294	12.6821	0.39296	0.319639
12.8298	12.6817	0.393323	0.321362
12.8303	12.6812	0.394944	0.324202
12.8308	12.6807	0.395625	0.327939
12.8312	12.6802	0.399051	0.333638
12.8317	12.6798	0.39495	0.335162
12.8322	12.6793	0.394599	0.336434
12.8327	12.6789	0.396167	0.338469
12.8331	12.6784	0.397152	0.338775
12.8336	12.6779	0.396775	0.341354
12.8341	12.6774	0.39454	0.343214
12.8346	12.677	0.395029	0.341516
12.835	12.6765	0.394963	0.339682
12.8355	12.676	0.397186	0.340773
12.836	12.6755	0.398504	0.34277
12.8364	12.675	0.395328	0.341236
12.8369	12.6746	0.396133	0.338684
12.8374	12.6741	0.398198	0.33824
12.8379	12.6736	0.397414	0.337256
12.8383	12.6731	0.396749	0.336565
12.8388	12.6727	0.397315	0.335355
12.8393	12.6722	0.397669	0.333288
12.8397	12.6717	0.396509	0.329896
12.8402	12.6713	0.396397	0.330044
12.8407	12.6708	0.398103	0.330089
12.8412	12.6703	0.394752	0.326921
12.8416	12.6699	0.396322	0.324071
12.8421	12.6694	0.396953	0.3203
12.8426	12.6689	0.395369	0.318777
12.8431	12.6685	0.397017	0.317662
12.8435	12.668	0.396124	0.315322
12.844	12.6675	0.394639	0.309985
12.8445	12.6671	0.396989	0.306734
12.8449	12.6666	0.397191	0.306195
12.8454	12.6661	0.397693	0.305535
12.8459	12.6656	0.395727	0.303025
12.8464	12.6651	0.394979	0.299444
12.8468	12.6647	0.395755	0.295085
12.8473	12.6642	0.396523	0.295292
12.8478	12.6637	0.396607	0.293068
12.8482	12.6632	0.395927	0.291484
12.8487	12.6628	0.394674	0.286834
12.8492	12.6623	0.395736	0.285462
12.8497	12.6619	0.394715	0.285085
12.8501	12.6614	0.396669	0.283341
12.8506	12.6609	0.395567	0.282372
12.8511	12.6604	0.395736	0.278291
12.8516	12.66	0.396277	0.275895
12.852	12.6595	0.395225	0.274979
12.8525	12.659	0.394208	0.274884
12.853	12.6586	0.393787	0.273528
12.8534	12.6581	0.395773	0.271839
12.8539	12.6576	0.394255	0.270323
12.8544	12.6572	0.393811	0.269553
12.8549	12.6567	0.395804	0.272697
12.8553	12.6562	0.393778	0.273488
12.8558	12.6557	0.392875	0.272225
12.8563	12.6552	0.394714	0.272789
12.8567	12.6548	0.394719	0.273769
12.8572	12.6543	0.394118	0.27642
12.8577	12.6538	0.395118	0.280307
12.8582	12.6533	0.397056	0.279838
12.8586	12.6529	0.394215	0.282378
12.8591	12.6524	0.394101	0.285178
12.8596	12.6519	0.395209	0.28802
12.8601	12.6515	0.393989	0.290743
12.8605	12.651	0.395483	0.291008
12.861	12.6505	0.396528	0.293364
12.8615	12.65	0.394004	0.295929
12.8619	12.6496	0.39532	0.300256
12.8624	12.6491	0.393833	0.301855
12.8629	12.6486	0.393056	0.302161
12.8634	12.6482	0.394937	0.304808
12.8638	12.6477	0.394096	0.307933
12.8643	12.6472	0.392891	0.309799
12.8648	12.6467	0.392538	0.311378
12.8652	12.6463	0.390245	0.310347
12.8657	12.6458	0.391933	0.311496
12.8662	12.6453	0.390338	0.311646
12.8667	12.6448	0.390056	0.313396
12.8671	12.6443	0.390318	0.315463
12.8676	12.6439	0.392209	0.314643
12.8681	12.6434	0.392347	0.315913
12.8686	12.6429	0.392235	0.318207
12.869	12.6425	0.391607	0.321839
12.8695	12.642	0.390066	0.320155
12.87	12.6415	0.391807	0.319385
12.8704	12.6411	0.3933	0.319752
12.8709	12.6406	0.393511	0.321088
12.8714	12.6401	0.392404	0.321427
12.8719	12.6397	0.392788	0.321337
12.8723	12.6392	0.391997	0.318957
12.8728	12.6387	0.394325	0.318038
12.8733	12.6383	0.393428	0.318202
12.8737	12.6378	0.393088	0.319533
12.8742	12.6373	0.391383	0.316772
12.8747	12.6368	0.391151	0.315051
12.8752	12.6364	0.392956	0.314302
12.8756	12.6359	0.392595	0.314146
12.8761	12.6354	0.389866	0.314054
12.8766	12.6349	0.390315	0.312639
12.8771	12.6345	0.390956	0.311625
12.8775	12.634	0.39369	0.310958
12.878	12.6335	0.389812	0.311961
12.8785	12.6331	0.391831	0.312497
12.8789	12.6326	0.390098	0.312053
12.8794	12.6321	0.391334	0.311568
12.8799	12.6317	0.391106	0.310385
12.8804	12.6312	0.389834	0.311252
12.8808	12.6307	0.389468	0.312339
12.8813	12.6302	0.39078	0.311933
12.8818	12.6298	0.390712	0.31167
12.8822	12.6293	0.391892	0.310945
12.8827	12.6288	0.39127	0.313124
12.8832	12.6284	0.39086	0.314384
12.8837	12.6279	0.388514	0.312529
12.8841	12.6274	0.388951	0.312235
12.8846	12.6269	0.393081	0.311538
12.8851	12.6265	0.389341	0.312121
12.8856	12.626	0.390523	0.311847
12.886	12.6255	0.390165	0.310996
12.8865	12.625	0.389811	0.309817
12.887	12.6245	0.390235	0.307713
12.8874	12.624	0.388854	0.307826
12.8879	12.6236	0.390078	0.308671
12.8884	12.6231	0.388197	0.306047
12.8889	12.6226	0.388632	0.304649
12.8893	12.6222	0.389719	0.304427
12.8898	12.6217	0.389087	0.304929
12.8903	12.6212	0.388579	0.304221
12.8907	12.6208	0.38813	0.304607
12.8912	12.6203	0.388177	0.302017
12.8917	12.6198	0.390312	0.301241
12.8922	12.6193	0.389078	0.303367
12.8926	12.6189	0.388533	0.302965
12.8931	12.6184	0.38769	0.301848
12.8936	12.6179	0.387454	0.300314
12.8941	12.6175	0.388614	0.300881
12.8945	12.617	0.387918	0.301816
12.895	12.6165	0.388662	0.302677
12.8955	12.616	0.387791	0.301816
12.8959	12.6155	0.38746	0.299327
12.8964	12.6151	0.388386	0.301535
12.8969	12.6146	0.388821	0.300218
12.8974	12.6141	0.38799	0.301109
12.8978	12.6136	0.386732	0.300127
12.8983	12.6132	0.386501	0.298257
12.8988	12.6127	0.387498	0.297644
