# 1304     AichiSR QXAFS
# Start     : 8.9544
# End       : 9.0544
# Dir       : Forward
# Points    : 300
# ScanTime  : 1.01549
# Date      : 13.04.23 22:32
# Ring Cur. : 25.6[mA]
12.7557	12.7558	0.403226	1.23183
12.7562	12.7553	0.401831	1.2288
12.7566	12.7548	0.403931	1.22978
12.7571	12.7544	0.403793	1.22983
12.7576	12.7539	0.403738	1.22768
12.7581	12.7534	0.402037	1.22708
12.7585	12.753	0.40123	1.22404
12.759	12.7525	0.401867	1.22437
12.7595	12.752	0.402458	1.22584
12.7599	12.7516	0.40387	1.22997
12.7604	12.7511	0.402044	1.22759
12.7609	12.7506	0.40246	1.22345
12.7614	12.7501	0.402437	1.22654
12.7618	12.7497	0.402242	1.22658
12.7623	12.7492	0.401886	1.22495
12.7628	12.7488	0.400357	1.22534
12.7632	12.7483	0.400497	1.21976
12.7637	12.7478	0.402044	1.22188
12.7642	12.7473	0.402696	1.22462
12.7647	12.7469	0.401155	1.2232
12.7651	12.7464	0.399252	1.22266
12.7656	12.7459	0.399305	1.22111
12.7661	12.7454	0.402665	1.21984
12.7666	12.745	0.401468	1.21893
12.767	12.7445	0.401527	1.21965
12.7675	12.744	0.399928	1.21806
12.768	12.7435	0.40094	1.21365
12.7684	12.7431	0.402186	1.21582
12.7689	12.7426	0.401066	1.21541
12.7694	12.7421	0.401878	1.21762
12.7699	12.7417	0.400891	1.21574
12.7703	12.7412	0.399699	1.21507
12.7708	12.7407	0.401105	1.21349
12.7713	12.7402	0.400518	1.2147
12.7717	12.7398	0.399861	1.21327
12.7722	12.7393	0.398745	1.20984
12.7727	12.7389	0.398428	1.20612
12.7732	12.7384	0.400333	1.20632
12.7736	12.7379	0.400145	1.20523
12.7741	12.7374	0.399125	1.21014
12.7746	12.737	0.399389	1.20555
12.7751	12.7365	0.398284	1.20083
12.7755	12.736	0.400365	1.20111
12.776	12.7355	0.399417	1.20185
12.7765	12.735	0.399728	1.20266
12.7769	12.7346	0.398774	1.19964
12.7774	12.7341	0.398795	1.1939
12.7779	12.7336	0.398661	1.19438
12.7784	12.7331	0.398432	1.19503
12.7788	12.7327	0.397166	1.19554
12.7793	12.7322	0.398335	1.19021
12.7798	12.7317	0.398432	1.183
12.7802	12.7313	0.400913	1.18885
12.7807	12.7308	0.401818	1.19364
12.7812	12.7303	0.398341	1.18046
12.7817	12.7298	0.397871	1.1735
12.7821	12.7294	0.397836	1.16764
12.7826	12.7289	0.39875	1.1605
12.7831	12.7284	0.397728	1.15815
12.7836	12.728	0.396644	1.15141
12.784	12.7275	0.396467	1.1419
12.7845	12.727	0.397	1.12785
12.785	12.7265	0.396831	1.11348
12.7854	12.7261	0.394179	1.09725
12.7859	12.7256	0.393173	1.06965
12.7864	12.7251	0.39233	1.03199
12.7869	12.7246	0.391541	0.985327
12.7873	12.7242	0.391777	0.932088
12.7878	12.7237	0.392773	0.876045
12.7883	12.7232	0.392162	0.815771
12.7887	12.7227	0.395627	0.754201
12.7892	12.7223	0.396457	0.700195
12.7897	12.7218	0.399263	0.665348
12.7902	12.7214	0.397596	0.641144
12.7906	12.7209	0.396934	0.625422
12.7911	12.7204	0.396791	0.614718
12.7916	12.7199	0.397982	0.613371
12.7921	12.7195	0.397738	0.615463
12.7925	12.719	0.39769	0.624826
12.793	12.7185	0.397881	0.627523
12.7935	12.7181	0.396662	0.629941
12.7939	12.7176	0.398179	0.631239
12.7944	12.7171	0.399401	0.631442
12.7949	12.7167	0.399753	0.62621
12.7954	12.7162	0.397074	0.618881
12.7958	12.7157	0.398263	0.605205
12.7963	12.7152	0.397294	0.594476
12.7968	12.7147	0.399797	0.583834
12.7972	12.7143	0.399258	0.576187
12.7977	12.7138	0.397765	0.565452
12.7982	12.7133	0.39817	0.554841
12.7987	12.7129	0.39914	0.543569
12.7991	12.7124	0.400193	0.532855
12.7996	12.7119	0.400129	0.523954
12.8001	12.7115	0.397502	0.510273
12.8006	12.711	0.397777	0.495625
12.801	12.7105	0.397685	0.480539
12.8015	12.71	0.398832	0.465783
12.802	12.7096	0.399895	0.453035
12.8024	12.7091	0.399204	0.434259
12.8029	12.7086	0.399183	0.417616
12.8034	12.7082	0.399576	0.399268
12.8039	12.7077	0.39958	0.384033
12.8043	12.7072	0.400111	0.37101
12.8048	12.7067	0.400056	0.35654
12.8053	12.7062	0.399737	0.33953
12.8057	12.7058	0.399625	0.325277
12.8062	12.7053	0.401875	0.315418
12.8067	12.7048	0.400275	0.306674
12.8072	12.7043	0.39962	0.298325
12.8076	12.7038	0.399163	0.291034
12.8081	12.7034	0.399688	0.283468
12.8086	12.7029	0.40075	0.282706
12.8091	12.7024	0.401055	0.282109
12.8095	12.702	0.399221	0.2829
12.81	12.7015	0.401121	0.282793
12.8105	12.701	0.400454	0.284781
12.8109	12.7005	0.401647	0.289618
12.8114	12.7001	0.401926	0.295757
12.8119	12.6996	0.399875	0.300537
12.8124	12.6992	0.400285	0.3033
12.8128	12.6987	0.400369	0.306641
12.8133	12.6982	0.401419	0.311339
12.8138	12.6978	0.399912	0.316369
12.8142	12.6973	0.399428	0.320546
12.8147	12.6968	0.399075	0.322283
12.8152	12.6963	0.400796	0.323783
12.8157	12.6959	0.399481	0.324091
12.8161	12.6954	0.400916	0.327128
12.8166	12.6949	0.400268	0.323407
12.8171	12.6944	0.400846	0.321033
12.8176	12.6939	0.401549	0.318094
12.818	12.6935	0.401702	0.314639
12.8185	12.693	0.402146	0.311106
12.819	12.6926	0.398451	0.304353
12.8194	12.6921	0.400337	0.297392
12.8199	12.6916	0.401961	0.290557
12.8204	12.6912	0.40018	0.287149
12.8209	12.6907	0.400804	0.28342
12.8213	12.6902	0.399983	0.279737
12.8218	12.6897	0.399066	0.275276
12.8223	12.6893	0.400121	0.272851
12.8227	12.6888	0.399797	0.275572
12.8232	12.6883	0.401172	0.277937
12.8237	12.6879	0.399727	0.280754
12.8242	12.6874	0.399333	0.28235
12.8246	12.6869	0.399456	0.285415
12.8251	12.6864	0.399275	0.289757
12.8256	12.686	0.398237	0.295623
12.8261	12.6855	0.398757	0.298806
12.8265	12.685	0.397624	0.301354
12.827	12.6845	0.399533	0.304862
12.8275	12.684	0.398688	0.310508
12.8279	12.6836	0.399358	0.313915
12.8284	12.6831	0.397292	0.316053
12.8289	12.6826	0.396643	0.318405
12.8294	12.6822	0.398489	0.320499
12.8298	12.6817	0.400006	0.32408
12.8303	12.6812	0.400805	0.329562
12.8308	12.6807	0.399194	0.333183
12.8312	12.6803	0.40017	0.334476
12.8317	12.6798	0.4018	0.33703
12.8322	12.6793	0.399793	0.339477
12.8327	12.6789	0.403187	0.343641
12.8331	12.6784	0.399593	0.344211
12.8336	12.6779	0.399625	0.344104
12.8341	12.6775	0.399875	0.344738
12.8346	12.677	0.399907	0.344781
12.835	12.6765	0.400254	0.344862
12.8355	12.676	0.399585	0.345586
12.836	12.6755	0.399708	0.344204
12.8364	12.6751	0.400221	0.343143
12.8369	12.6746	0.400956	0.342595
12.8374	12.6741	0.401027	0.34333
12.8379	12.6736	0.399129	0.341219
12.8383	12.6732	0.400794	0.338437
12.8388	12.6727	0.40071	0.338448
12.8393	12.6722	0.400665	0.336437
12.8397	12.6718	0.400429	0.337076
12.8402	12.6713	0.40129	0.335854
12.8407	12.6708	0.39967	0.331456
12.8412	12.6703	0.402026	0.328831
12.8416	12.6699	0.399884	0.32827
12.8421	12.6694	0.399601	0.326552
12.8426	12.669	0.399458	0.323008
12.8431	12.6685	0.398509	0.319575
12.8435	12.668	0.400141	0.315868
12.844	12.6676	0.400037	0.314858
12.8445	12.6671	0.400085	0.314007
12.8449	12.6666	0.398846	0.311096
12.8454	12.6661	0.400127	0.305947
12.8459	12.6656	0.401815	0.304744
12.8464	12.6652	0.399459	0.301823
12.8468	12.6647	0.400035	0.301545
12.8473	12.6642	0.397686	0.29875
12.8478	12.6637	0.398121	0.2951
12.8482	12.6633	0.399507	0.292488
12.8487	12.6628	0.397928	0.291413
12.8492	12.6623	0.398517	0.289759
12.8497	12.6619	0.398765	0.287945
12.8501	12.6614	0.397613	0.28451
12.8506	12.6609	0.399979	0.282826
12.8511	12.6605	0.397914	0.281532
12.8516	12.66	0.399308	0.280916
12.852	12.6595	0.397377	0.278403
12.8525	12.6591	0.397383	0.275672
12.853	12.6586	0.398619	0.274512
12.8534	12.6581	0.39784	0.2745
12.8539	12.6577	0.397398	0.274125
12.8544	12.6572	0.397511	0.27408
12.8549	12.6567	0.397046	0.273594
12.8553	12.6562	0.398023	0.271785
12.8558	12.6557	0.397273	0.273592
12.8563	12.6553	0.396646	0.275201
12.8567	12.6548	0.39836	0.276854
12.8572	12.6543	0.395656	0.276329
12.8577	12.6538	0.400384	0.279616
12.8582	12.6534	0.397491	0.281311
12.8586	12.6529	0.397333	0.285216
12.8591	12.6524	0.398592	0.286873
12.8596	12.652	0.396546	0.287655
12.8601	12.6515	0.39926	0.289723
12.8605	12.651	0.397717	0.295449
12.861	12.6505	0.398128	0.295822
12.8615	12.6501	0.397024	0.298925
12.8619	12.6496	0.396082	0.298738
12.8624	12.6491	0.399647	0.303249
12.8629	12.6487	0.398489	0.305705
12.8634	12.6482	0.396004	0.307331
12.8638	12.6477	0.395856	0.309319
12.8643	12.6472	0.394409	0.309251
12.8648	12.6467	0.397093	0.309003
12.8652	12.6463	0.394636	0.312896
12.8657	12.6458	0.393194	0.314692
12.8662	12.6453	0.392364	0.314754
12.8667	12.6448	0.392513	0.313765
12.8671	12.6443	0.394517	0.316816
12.8676	12.6439	0.39343	0.317801
12.8681	12.6434	0.394495	0.319762
12.8686	12.6429	0.394779	0.32084
12.869	12.6425	0.393505	0.320293
12.8695	12.642	0.395801	0.320659
12.87	12.6416	0.396063	0.322979
12.8704	12.6411	0.396168	0.324677
12.8709	12.6406	0.394665	0.323023
12.8714	12.6401	0.394443	0.320114
12.8719	12.6397	0.397127	0.321224
12.8723	12.6392	0.395887	0.32095
12.8728	12.6387	0.395318	0.322106
12.8733	12.6383	0.395958	0.321259
12.8737	12.6378	0.394706	0.319238
12.8742	12.6373	0.396467	0.318521
12.8747	12.6369	0.394604	0.318094
12.8752	12.6364	0.394707	0.318425
12.8756	12.6359	0.395221	0.316211
12.8761	12.6354	0.39326	0.315159
12.8766	12.635	0.395828	0.314442
12.8771	12.6345	0.394997	0.317019
12.8775	12.634	0.394376	0.315791
12.878	12.6335	0.393143	0.314731
12.8785	12.6331	0.394819	0.313822
12.8789	12.6326	0.39565	0.313385
12.8794	12.6321	0.395885	0.313876
12.8799	12.6317	0.393961	0.314511
12.8804	12.6312	0.394785	0.314068
12.8808	12.6307	0.393662	0.312451
12.8813	12.6302	0.394625	0.314185
12.8818	12.6298	0.394146	0.315235
12.8822	12.6293	0.392506	0.315619
12.8827	12.6288	0.394788	0.315096
12.8832	12.6284	0.393279	0.314462
12.8837	12.6279	0.393481	0.313958
12.8841	12.6274	0.393696	0.316402
12.8846	12.6269	0.393	0.316313
12.8851	12.6265	0.392671	0.313891
12.8856	12.626	0.393414	0.31268
12.886	12.6255	0.393753	0.313737
12.8865	12.625	0.394763	0.314128
12.887	12.6246	0.3922	0.311745
12.8874	12.6241	0.393128	0.310252
12.8879	12.6236	0.393646	0.309674
12.8884	12.6231	0.39276	0.30898
12.8889	12.6227	0.392499	0.309246
12.8893	12.6222	0.39372	0.308669
12.8898	12.6217	0.391804	0.305023
12.8903	12.6213	0.390522	0.304521
12.8907	12.6208	0.394144	0.305728
12.8912	12.6203	0.393662	0.305925
12.8917	12.6198	0.391375	0.30545
12.8922	12.6194	0.391751	0.305004
12.8926	12.6189	0.393065	0.303974
12.8931	12.6184	0.390842	0.304155
12.8936	12.618	0.390437	0.305117
12.8941	12.6175	0.389922	0.304765
12.8945	12.617	0.391437	0.303935
12.895	12.6165	0.390254	0.303206
12.8955	12.616	0.392949	0.303611
12.8959	12.6156	0.39143	0.304733
12.8964	12.6151	0.389835	0.303418
12.8969	12.6146	0.388685	0.303423
12.8974	12.6141	0.391062	0.301665
12.8978	12.6137	0.391929	0.301
12.8983	12.6132	0.390202	0.302771
12.8988	12.6127	0.389857	0.301327
