# 1304     AichiSR QXAFS
# Start     : 8.9544
# End       : 9.0544
# Dir       : Backward
# Points    : 300
# ScanTime  : 1.01549
# Date      : 13.04.23 22:28
# Ring Cur. : 25.4[mA]
12.7557	12.6118	0.296743	0.228271
12.7562	12.6123	0.294921	0.22623
12.7566	12.6127	0.298827	0.227137
12.7571	12.6132	0.29918	0.230523
12.7576	12.6136	0.298014	0.230263
12.7581	12.6141	0.297726	0.231786
12.7585	12.6146	0.301474	0.231982
12.759	12.6151	0.299578	0.230686
12.7595	12.6155	0.298887	0.232886
12.7599	12.616	0.300986	0.236281
12.7604	12.6165	0.299391	0.234072
12.7609	12.617	0.297565	0.232583
12.7614	12.6174	0.30069	0.232697
12.7618	12.6179	0.301672	0.235477
12.7623	12.6184	0.297185	0.233327
12.7628	12.6189	0.299568	0.235549
12.7632	12.6193	0.301126	0.233824
12.7637	12.6198	0.301358	0.233641
12.7642	12.6203	0.301556	0.234051
12.7647	12.6207	0.302686	0.236289
12.7651	12.6212	0.300861	0.236356
12.7656	12.6217	0.300049	0.233429
12.7661	12.6222	0.30383	0.236174
12.7666	12.6226	0.302259	0.234934
12.767	12.6231	0.301938	0.238109
12.7675	12.6236	0.30026	0.237524
12.768	12.624	0.301298	0.236779
12.7684	12.6245	0.301851	0.23744
12.7689	12.625	0.299602	0.237772
12.7694	12.6255	0.301612	0.241339
12.7699	12.626	0.300767	0.241513
12.7703	12.6264	0.301401	0.23946
12.7708	12.6269	0.302061	0.240437
12.7713	12.6274	0.301223	0.240549
12.7717	12.6279	0.300361	0.242688
12.7722	12.6284	0.301306	0.242015
12.7727	12.6288	0.301445	0.241604
12.7732	12.6293	0.303418	0.24215
12.7736	12.6297	0.302195	0.242653
12.7741	12.6302	0.303311	0.244082
12.7746	12.6307	0.30302	0.243418
12.7751	12.6312	0.302173	0.240279
12.7755	12.6316	0.302667	0.24094
12.776	12.6321	0.300977	0.241237
12.7765	12.6326	0.301937	0.243491
12.7769	12.633	0.302299	0.241614
12.7774	12.6335	0.304009	0.241357
12.7779	12.634	0.303969	0.240559
12.7784	12.6344	0.302333	0.241516
12.7788	12.6349	0.303465	0.244309
12.7793	12.6354	0.304111	0.244799
12.7798	12.6359	0.303492	0.241927
12.7802	12.6363	0.305825	0.243245
12.7807	12.6368	0.304626	0.245192
12.7812	12.6373	0.303466	0.244965
12.7817	12.6378	0.304671	0.245936
12.7821	12.6382	0.304087	0.244905
12.7826	12.6387	0.305801	0.24703
12.7831	12.6392	0.303194	0.246323
12.7836	12.6396	0.304677	0.24995
12.784	12.6401	0.303191	0.248954
12.7845	12.6406	0.302671	0.247032
12.785	12.641	0.307521	0.250189
12.7854	12.6415	0.304664	0.249317
12.7859	12.642	0.304374	0.249733
12.7864	12.6425	0.305321	0.249862
12.7869	12.6429	0.306313	0.247278
12.7873	12.6434	0.305961	0.247914
12.7878	12.6438	0.304922	0.24847
12.7883	12.6443	0.304703	0.248634
12.7887	12.6448	0.304115	0.246906
12.7892	12.6453	0.30177	0.243304
12.7897	12.6458	0.30627	0.243842
12.7902	12.6462	0.302602	0.242352
12.7906	12.6467	0.301508	0.243015
12.7911	12.6472	0.303479	0.241938
12.7916	12.6477	0.30349	0.240126
12.7921	12.6482	0.306491	0.240721
12.7925	12.6486	0.30443	0.237578
12.793	12.6491	0.306773	0.24009
12.7935	12.6496	0.306689	0.23635
12.7939	12.65	0.307264	0.233939
12.7944	12.6505	0.307889	0.232492
12.7949	12.651	0.309714	0.231633
12.7954	12.6515	0.307394	0.229695
12.7958	12.6519	0.306003	0.226014
12.7963	12.6524	0.307248	0.225202
12.7968	12.6529	0.309157	0.222941
12.7972	12.6533	0.307329	0.221909
12.7977	12.6538	0.307869	0.22135
12.7982	12.6543	0.307132	0.218783
12.7987	12.6548	0.306291	0.215154
12.7991	12.6552	0.310064	0.215973
12.7996	12.6557	0.30984	0.215638
12.8001	12.6562	0.307229	0.21366
12.8006	12.6567	0.306805	0.213071
12.801	12.6571	0.30935	0.212411
12.8015	12.6576	0.311397	0.21242
12.802	12.6581	0.309061	0.213042
12.8024	12.6586	0.308263	0.214012
12.8029	12.659	0.307843	0.212908
12.8034	12.6595	0.307686	0.21216
12.8039	12.66	0.311018	0.215227
12.8043	12.6604	0.309738	0.217027
12.8048	12.6609	0.308497	0.218312
12.8053	12.6614	0.30762	0.218004
12.8057	12.6619	0.309328	0.221044
12.8062	12.6623	0.309726	0.221288
12.8067	12.6628	0.311132	0.224065
12.8072	12.6632	0.3109	0.227019
12.8076	12.6637	0.309745	0.226534
12.8081	12.6642	0.309693	0.227349
12.8086	12.6646	0.311818	0.232209
12.8091	12.6651	0.311373	0.233549
12.8095	12.6656	0.308251	0.234866
12.81	12.6661	0.308428	0.235149
12.8105	12.6666	0.310303	0.236838
12.8109	12.667	0.310988	0.238956
12.8114	12.6675	0.309322	0.241633
12.8119	12.668	0.310581	0.244643
12.8124	12.6685	0.309604	0.245223
12.8128	12.6689	0.30919	0.245181
12.8133	12.6694	0.31285	0.250462
12.8138	12.6698	0.312022	0.253826
12.8142	12.6703	0.310511	0.255685
12.8147	12.6708	0.309818	0.254721
12.8152	12.6713	0.311061	0.257437
12.8157	12.6717	0.310826	0.258048
12.8161	12.6722	0.310553	0.26132
12.8166	12.6727	0.311329	0.263894
12.8171	12.6731	0.310119	0.261959
12.8176	12.6736	0.308522	0.261855
12.818	12.6741	0.311039	0.265277
12.8185	12.6745	0.31081	0.266884
12.819	12.675	0.309606	0.267547
12.8194	12.6755	0.311177	0.267636
12.8199	12.676	0.312123	0.266494
12.8204	12.6765	0.313574	0.267475
12.8209	12.6769	0.311418	0.269545
12.8213	12.6774	0.311834	0.271869
12.8218	12.6779	0.311522	0.268957
12.8223	12.6784	0.309965	0.266099
12.8227	12.6788	0.313435	0.26808
12.8232	12.6793	0.312014	0.269463
12.8237	12.6798	0.311458	0.26689
12.8242	12.6802	0.309598	0.263012
12.8246	12.6807	0.310495	0.261287
12.8251	12.6812	0.311747	0.259895
12.8256	12.6817	0.31053	0.257882
12.8261	12.6821	0.31232	0.257647
12.8265	12.6826	0.311923	0.254099
12.827	12.6831	0.310264	0.250018
12.8275	12.6835	0.311377	0.24875
12.8279	12.684	0.311165	0.247502
12.8284	12.6845	0.311739	0.246727
12.8289	12.685	0.309783	0.242596
12.8294	12.6855	0.310204	0.238283
12.8298	12.6859	0.310732	0.235504
12.8303	12.6864	0.309322	0.232988
12.8308	12.6869	0.311684	0.231309
12.8312	12.6874	0.311594	0.226461
12.8317	12.6879	0.309916	0.221363
12.8322	12.6883	0.312203	0.219867
12.8327	12.6888	0.311951	0.218576
12.8331	12.6892	0.313656	0.218508
12.8336	12.6897	0.313305	0.215335
12.8341	12.6902	0.312238	0.214487
12.8346	12.6906	0.313035	0.215389
12.835	12.6911	0.311483	0.219826
12.8355	12.6916	0.312344	0.223182
12.836	12.6921	0.312419	0.225156
12.8364	12.6925	0.310223	0.227717
12.8369	12.693	0.313082	0.233793
12.8374	12.6934	0.312556	0.238497
12.8379	12.6939	0.309912	0.242872
12.8383	12.6944	0.310176	0.245485
12.8388	12.6949	0.311772	0.248774
12.8393	12.6953	0.311042	0.248783
12.8397	12.6958	0.310632	0.251686
12.8402	12.6963	0.31183	0.255011
12.8407	12.6968	0.311311	0.253873
12.8412	12.6972	0.310539	0.250206
12.8416	12.6977	0.313595	0.252324
12.8421	12.6982	0.314143	0.250878
12.8426	12.6987	0.310172	0.246119
12.8431	12.6991	0.3117	0.242671
12.8435	12.6996	0.311902	0.239386
12.844	12.7	0.310736	0.235894
12.8445	12.7005	0.309019	0.231841
12.8449	12.701	0.311783	0.229829
12.8454	12.7015	0.309841	0.224072
12.8459	12.7019	0.308787	0.220898
12.8464	12.7024	0.312235	0.220871
12.8468	12.7029	0.312505	0.220615
12.8473	12.7033	0.310065	0.220484
12.8478	12.7038	0.311471	0.221346
12.8482	12.7043	0.31449	0.223892
12.8487	12.7048	0.313099	0.227098
12.8492	12.7053	0.313164	0.234745
12.8497	12.7057	0.312017	0.242627
12.8501	12.7062	0.311819	0.248539
12.8506	12.7067	0.312422	0.257492
12.8511	12.7072	0.313519	0.268198
12.8516	12.7077	0.313423	0.280736
12.852	12.7081	0.312538	0.292132
12.8525	12.7086	0.312592	0.30305
12.853	12.7091	0.314793	0.31643
12.8534	12.7095	0.314824	0.330789
12.8539	12.71	0.316456	0.346377
12.8544	12.7105	0.314769	0.358991
12.8549	12.711	0.317364	0.372485
12.8553	12.7114	0.316729	0.3853
12.8558	12.7119	0.317281	0.396194
12.8563	12.7124	0.317192	0.410094
12.8567	12.7128	0.314461	0.417767
12.8572	12.7133	0.315305	0.422736
12.8577	12.7138	0.316343	0.433825
12.8582	12.7142	0.316203	0.441011
12.8586	12.7147	0.314098	0.447694
12.8591	12.7152	0.314291	0.458979
12.8596	12.7157	0.315483	0.464549
12.8601	12.7162	0.314782	0.473914
12.8605	12.7166	0.315949	0.483836
12.861	12.7171	0.318338	0.496187
12.8615	12.7176	0.315078	0.498694
12.8619	12.7181	0.31623	0.50391
12.8624	12.7185	0.318256	0.505572
12.8629	12.719	0.317812	0.502367
12.8634	12.7194	0.31739	0.499418
12.8638	12.7199	0.315983	0.495803
12.8643	12.7204	0.314314	0.49026
12.8648	12.7208	0.313761	0.486408
12.8652	12.7213	0.315419	0.490734
12.8657	12.7218	0.316648	0.500482
12.8662	12.7223	0.314325	0.5115
12.8667	12.7227	0.316612	0.530941
12.8671	12.7232	0.316547	0.567097
12.8676	12.7236	0.316344	0.60733
12.8681	12.7241	0.314313	0.657114
12.8686	12.7246	0.313248	0.71254
12.869	12.7251	0.312218	0.755813
12.8695	12.7256	0.313935	0.791818
12.87	12.726	0.314872	0.83262
12.8704	12.7265	0.316226	0.860352
12.8709	12.727	0.314126	0.876033
12.8714	12.7275	0.314919	0.889974
12.8719	12.7279	0.316746	0.903137
12.8723	12.7284	0.315377	0.909471
12.8728	12.7289	0.316727	0.916609
12.8733	12.7293	0.317507	0.928976
12.8737	12.7298	0.315936	0.924365
12.8742	12.7303	0.317843	0.929605
12.8747	12.7307	0.319246	0.941899
12.8752	12.7312	0.31989	0.947586
12.8756	12.7317	0.318889	0.947792
12.8761	12.7322	0.317782	0.947078
12.8766	12.7326	0.319458	0.952283
12.8771	12.7331	0.319632	0.951832
12.8775	12.7336	0.318689	0.956291
12.878	12.7341	0.319082	0.958604
12.8785	12.7345	0.318589	0.953463
12.8789	12.735	0.317532	0.952479
12.8794	12.7355	0.31855	0.955859
12.8799	12.736	0.320208	0.965759
12.8804	12.7365	0.320046	0.964461
12.8808	12.7369	0.318835	0.960365
12.8813	12.7374	0.32092	0.964491
12.8818	12.7379	0.321464	0.968053
12.8822	12.7384	0.322687	0.972546
12.8827	12.7388	0.321215	0.974288
12.8832	12.7393	0.320499	0.971243
12.8837	12.7398	0.322142	0.97074
12.8841	12.7402	0.322607	0.974133
12.8846	12.7407	0.322569	0.975087
12.8851	12.7412	0.319628	0.974597
12.8856	12.7417	0.321638	0.975343
12.886	12.7421	0.320391	0.972211
12.8865	12.7426	0.320244	0.971231
12.887	12.7431	0.322187	0.974856
12.8874	12.7435	0.322114	0.98116
12.8879	12.744	0.320299	0.975767
12.8884	12.7445	0.32134	0.975248
12.8889	12.7449	0.323829	0.984143
12.8893	12.7454	0.324883	0.990668
12.8898	12.7459	0.323583	0.987074
12.8903	12.7464	0.321781	0.983339
12.8907	12.7469	0.324962	0.985051
12.8912	12.7473	0.324424	0.983365
12.8917	12.7478	0.32548	0.986976
12.8922	12.7483	0.323988	0.989527
12.8926	12.7487	0.324576	0.987511
12.8931	12.7492	0.325291	0.985654
12.8936	12.7497	0.321687	0.983092
12.8941	12.7501	0.323426	0.989079
12.8945	12.7506	0.323539	0.991376
12.895	12.7511	0.324346	0.988478
12.8955	12.7516	0.32641	0.989383
12.8959	12.752	0.323586	0.989518
12.8964	12.7525	0.324774	0.990276
12.8969	12.7529	0.325087	0.996106
12.8974	12.7534	0.326209	0.990712
12.8978	12.7539	0.325466	0.987777
12.8983	12.7543	0.323893	0.98899
12.8988	12.7548	0.325746	0.992939
