# 1304     AichiSR QXAFS
# Start     : 8.9544
# End       : 9.0544
# Dir       : Forward
# Points    : 300
# ScanTime  : 1.01549
# Date      : 13.04.23 22:30
# Ring Cur. : 25.7[mA]
12.7557	12.7558	0.404793	1.23279
12.7562	12.7553	0.404067	1.22858
12.7566	12.7548	0.404767	1.23045
12.7571	12.7543	0.404298	1.23341
12.7576	12.7539	0.402992	1.23331
12.7581	12.7534	0.403669	1.22904
12.7585	12.7529	0.403555	1.22956
12.759	12.7525	0.404591	1.23025
12.7595	12.752	0.404828	1.23296
12.7599	12.7516	0.403042	1.23151
12.7604	12.7511	0.403694	1.22886
12.7609	12.7506	0.403837	1.22553
12.7614	12.7501	0.403878	1.22556
12.7618	12.7497	0.405581	1.22943
12.7623	12.7492	0.402401	1.23113
12.7628	12.7487	0.404784	1.22452
12.7632	12.7483	0.4031	1.22744
12.7637	12.7478	0.403379	1.22799
12.7642	12.7473	0.404131	1.22748
12.7647	12.7469	0.401889	1.22871
12.7651	12.7464	0.40208	1.2235
12.7656	12.7459	0.403005	1.22188
12.7661	12.7454	0.400916	1.22336
12.7666	12.7449	0.40408	1.22591
12.767	12.7445	0.402502	1.22662
12.7675	12.744	0.402045	1.22172
12.768	12.7435	0.402967	1.22032
12.7684	12.7431	0.402185	1.22172
12.7689	12.7426	0.401715	1.22309
12.7694	12.7421	0.401491	1.2202
12.7699	12.7417	0.40085	1.21989
12.7703	12.7412	0.400949	1.21605
12.7708	12.7407	0.400625	1.2163
12.7713	12.7402	0.401213	1.21857
12.7717	12.7398	0.401157	1.21857
12.7722	12.7393	0.401027	1.21112
12.7727	12.7388	0.402433	1.21438
12.7732	12.7384	0.402136	1.2149
12.7736	12.7379	0.402248	1.21333
12.7741	12.7374	0.402032	1.21293
12.7746	12.7369	0.400872	1.21042
12.7751	12.7365	0.401499	1.20587
12.7755	12.736	0.401207	1.20638
12.776	12.7355	0.401195	1.20814
12.7765	12.735	0.399282	1.20284
12.7769	12.7345	0.400006	1.20098
12.7774	12.7341	0.401133	1.1977
12.7779	12.7336	0.399386	1.20188
12.7784	12.7331	0.399863	1.1986
12.7788	12.7326	0.398685	1.19817
12.7793	12.7322	0.39942	1.19114
12.7798	12.7317	0.39849	1.18915
12.7802	12.7312	0.399128	1.18731
12.7807	12.7308	0.399845	1.18411
12.7812	12.7303	0.40082	1.18178
12.7817	12.7298	0.398819	1.17309
12.7821	12.7293	0.399968	1.17102
12.7826	12.7289	0.398156	1.16642
12.7831	12.7284	0.399358	1.16019
12.7836	12.7279	0.396551	1.15364
12.784	12.7275	0.398135	1.13623
12.7845	12.727	0.39669	1.12565
12.785	12.7265	0.395889	1.10922
12.7854	12.726	0.396697	1.09064
12.7859	12.7256	0.392598	1.06191
12.7864	12.7251	0.390988	1.01938
12.7869	12.7246	0.392092	0.974265
12.7873	12.7241	0.392004	0.922493
12.7878	12.7237	0.392508	0.859525
12.7883	12.7232	0.39309	0.798364
12.7887	12.7227	0.395913	0.74186
12.7892	12.7223	0.396519	0.690224
12.7897	12.7218	0.396629	0.653921
12.7902	12.7213	0.395967	0.635553
12.7906	12.7209	0.394843	0.61848
12.7911	12.7204	0.396273	0.611421
12.7916	12.7199	0.396437	0.611245
12.7921	12.7195	0.395733	0.614943
12.7925	12.719	0.396186	0.622288
12.793	12.7185	0.393977	0.626256
12.7935	12.7181	0.396803	0.627655
12.7939	12.7176	0.395155	0.627873
12.7944	12.7171	0.395591	0.625586
12.7949	12.7166	0.395448	0.620601
12.7954	12.7162	0.395148	0.61167
12.7958	12.7157	0.394897	0.596934
12.7963	12.7152	0.395048	0.58611
12.7968	12.7147	0.394172	0.576102
12.7972	12.7142	0.394479	0.563673
12.7977	12.7138	0.39472	0.555324
12.7982	12.7133	0.393961	0.543862
12.7987	12.7128	0.394545	0.533649
12.7991	12.7124	0.393591	0.523638
12.7996	12.7119	0.394812	0.514782
12.8001	12.7114	0.393078	0.499678
12.8006	12.711	0.393694	0.484334
12.801	12.7105	0.39569	0.471684
12.8015	12.71	0.39367	0.457508
12.802	12.7095	0.394886	0.441935
12.8024	12.7091	0.393721	0.424132
12.8029	12.7086	0.394156	0.405718
12.8034	12.7081	0.396306	0.391105
12.8039	12.7077	0.398534	0.38108
12.8043	12.7072	0.393507	0.360511
12.8048	12.7067	0.392055	0.343556
12.8053	12.7062	0.392749	0.329336
12.8057	12.7057	0.393366	0.318386
12.8062	12.7053	0.394068	0.306754
12.8067	12.7048	0.39239	0.299424
12.8072	12.7043	0.391862	0.291118
12.8076	12.7038	0.39301	0.283563
12.8081	12.7033	0.395269	0.279127
12.8086	12.7029	0.393651	0.278067
12.8091	12.7024	0.394027	0.27625
12.8095	12.702	0.393455	0.276651
12.81	12.7015	0.390848	0.278147
12.8105	12.701	0.393768	0.281406
12.8109	12.7005	0.392671	0.286653
12.8114	12.7001	0.391599	0.291101
12.8119	12.6996	0.391956	0.2946
12.8124	12.6991	0.392334	0.2984
12.8128	12.6987	0.393146	0.303592
12.8133	12.6982	0.393268	0.308183
12.8138	12.6977	0.39358	0.312208
12.8142	12.6973	0.392763	0.31391
12.8147	12.6968	0.391822	0.315846
12.8152	12.6963	0.394693	0.317703
12.8157	12.6958	0.39343	0.321132
12.8161	12.6954	0.392056	0.320183
12.8166	12.6949	0.393133	0.318272
12.8171	12.6944	0.394325	0.314448
12.8176	12.6939	0.394466	0.310676
12.818	12.6935	0.393749	0.307522
12.8185	12.693	0.393389	0.304158
12.819	12.6925	0.392584	0.297561
12.8194	12.6921	0.392677	0.289196
12.8199	12.6916	0.395501	0.286687
12.8204	12.6911	0.395084	0.282773
12.8209	12.6907	0.39442	0.27875
12.8213	12.6902	0.394926	0.273654
12.8218	12.6897	0.394504	0.270919
12.8223	12.6893	0.395598	0.269833
12.8227	12.6888	0.394052	0.272635
12.8232	12.6883	0.394313	0.27552
12.8237	12.6879	0.393506	0.276341
12.8242	12.6874	0.392437	0.277053
12.8246	12.6869	0.39523	0.282212
12.8251	12.6864	0.393757	0.286712
12.8256	12.6859	0.392933	0.293379
12.8261	12.6855	0.393263	0.295577
12.8265	12.685	0.391793	0.297823
12.827	12.6845	0.395277	0.302213
12.8275	12.684	0.392591	0.307123
12.8279	12.6835	0.393044	0.310529
12.8284	12.6831	0.39188	0.311988
12.8289	12.6826	0.393081	0.315198
12.8294	12.6822	0.394414	0.317467
12.8298	12.6817	0.394364	0.322507
12.8303	12.6812	0.394063	0.326444
12.8308	12.6807	0.394227	0.329202
12.8312	12.6803	0.393776	0.330371
12.8317	12.6798	0.396013	0.333799
12.8322	12.6793	0.395467	0.337464
12.8327	12.6789	0.395525	0.339474
12.8331	12.6784	0.397313	0.339031
12.8336	12.6779	0.395595	0.340412
12.8341	12.6774	0.396143	0.341599
12.8346	12.677	0.397597	0.342268
12.835	12.6765	0.39535	0.341335
12.8355	12.676	0.394984	0.340624
12.836	12.6755	0.396225	0.339152
12.8364	12.675	0.3971	0.338374
12.8369	12.6746	0.396773	0.34051
12.8374	12.6741	0.396165	0.340185
12.8379	12.6736	0.397934	0.337475
12.8383	12.6731	0.395988	0.334921
12.8388	12.6727	0.396243	0.33422
12.8393	12.6722	0.396493	0.334097
12.8397	12.6717	0.395183	0.331292
12.8402	12.6713	0.395624	0.329234
12.8407	12.6708	0.397312	0.327724
12.8412	12.6703	0.396903	0.325537
12.8416	12.6699	0.398266	0.325208
12.8421	12.6694	0.396664	0.324531
12.8426	12.6689	0.398459	0.319835
12.8431	12.6685	0.39621	0.315353
12.8435	12.668	0.396775	0.3153
12.844	12.6675	0.397297	0.312516
12.8445	12.6671	0.395553	0.310065
12.8449	12.6666	0.395984	0.306462
12.8454	12.6661	0.398565	0.303082
12.8459	12.6656	0.396909	0.300603
12.8464	12.6651	0.39789	0.299679
12.8468	12.6647	0.396096	0.298638
12.8473	12.6642	0.396516	0.294412
12.8478	12.6637	0.396004	0.291695
12.8482	12.6633	0.398345	0.291653
12.8487	12.6628	0.396563	0.291286
12.8492	12.6623	0.396074	0.287582
12.8497	12.6619	0.395328	0.284241
12.8501	12.6614	0.39567	0.281279
12.8506	12.6609	0.397049	0.279994
12.8511	12.6604	0.397107	0.280223
12.8516	12.66	0.394901	0.279572
12.852	12.6595	0.396052	0.275192
12.8525	12.6591	0.397101	0.273484
12.853	12.6586	0.395756	0.272761
12.8534	12.6581	0.396089	0.273652
12.8539	12.6576	0.39517	0.272685
12.8544	12.6572	0.394338	0.271879
12.8549	12.6567	0.394372	0.271259
12.8553	12.6562	0.395646	0.272497
12.8558	12.6557	0.39565	0.274136
12.8563	12.6552	0.395372	0.27622
12.8567	12.6548	0.395561	0.2755
12.8572	12.6543	0.396256	0.276301
12.8577	12.6538	0.395777	0.278781
12.8582	12.6533	0.396739	0.282104
12.8586	12.6529	0.395681	0.284056
12.8591	12.6524	0.395632	0.285485
12.8596	12.6519	0.395881	0.285413
12.8601	12.6515	0.396023	0.290615
12.8605	12.651	0.396341	0.293992
12.861	12.6505	0.394811	0.295024
12.8615	12.65	0.395248	0.296928
12.8619	12.6496	0.395776	0.299294
12.8624	12.6491	0.395447	0.302781
12.8629	12.6486	0.395118	0.306336
12.8634	12.6482	0.394396	0.307184
12.8638	12.6477	0.394735	0.307032
12.8643	12.6472	0.394996	0.310318
12.8648	12.6467	0.392423	0.309655
12.8652	12.6463	0.392024	0.312583
12.8657	12.6458	0.390556	0.31363
12.8662	12.6453	0.389785	0.312326
12.8667	12.6448	0.391149	0.313888
12.8671	12.6443	0.392337	0.315482
12.8676	12.6439	0.393982	0.317917
12.8681	12.6434	0.392245	0.319584
12.8686	12.6429	0.392495	0.318441
12.869	12.6425	0.394193	0.319734
12.8695	12.642	0.395405	0.32094
12.87	12.6415	0.394198	0.322954
12.8704	12.6411	0.394664	0.323455
12.8709	12.6406	0.392982	0.319732
12.8714	12.6401	0.394196	0.319936
12.8719	12.6397	0.393387	0.32062
12.8723	12.6392	0.394736	0.322542
12.8728	12.6387	0.393962	0.320382
12.8733	12.6383	0.391658	0.316855
12.8737	12.6378	0.394537	0.318337
12.8742	12.6373	0.392013	0.317085
12.8747	12.6368	0.394015	0.317675
12.8752	12.6364	0.392848	0.317643
12.8756	12.6359	0.392043	0.314367
12.8761	12.6354	0.391929	0.313761
12.8766	12.6349	0.394765	0.314182
12.8771	12.6345	0.394195	0.316225
12.8775	12.634	0.391593	0.31392
12.878	12.6335	0.392615	0.310935
12.8785	12.633	0.394597	0.312186
12.8789	12.6326	0.39402	0.312958
12.8794	12.6321	0.393462	0.313791
12.8799	12.6317	0.392976	0.313871
12.8804	12.6312	0.392418	0.311308
12.8808	12.6307	0.392262	0.311653
12.8813	12.6302	0.392277	0.313561
12.8818	12.6298	0.39203	0.313972
12.8822	12.6293	0.39137	0.313241
12.8827	12.6288	0.391192	0.312571
12.8832	12.6284	0.391577	0.312278
12.8837	12.6279	0.39041	0.314025
12.8841	12.6274	0.392312	0.315668
12.8846	12.6269	0.391947	0.313347
12.8851	12.6265	0.390206	0.310944
12.8856	12.626	0.3914	0.310266
12.886	12.6255	0.391326	0.311389
12.8865	12.625	0.391612	0.312342
12.887	12.6245	0.391119	0.31078
12.8874	12.6241	0.389848	0.307685
12.8879	12.6236	0.39238	0.308385
12.8884	12.6231	0.391099	0.307461
12.8889	12.6226	0.390232	0.308845
12.8893	12.6222	0.39075	0.30717
12.8898	12.6217	0.38976	0.30348
12.8903	12.6212	0.392079	0.304008
12.8907	12.6208	0.390444	0.304977
12.8912	12.6203	0.391241	0.304444
12.8917	12.6198	0.387897	0.303407
12.8922	12.6193	0.389681	0.302913
12.8926	12.6189	0.391211	0.302601
12.8931	12.6184	0.389051	0.302887
12.8936	12.6179	0.389669	0.304509
12.8941	12.6175	0.388547	0.303047
12.8945	12.617	0.386847	0.301061
12.895	12.6165	0.390376	0.301618
12.8955	12.616	0.389774	0.303176
12.8959	12.6156	0.389332	0.303602
12.8964	12.6151	0.388922	0.302133
12.8969	12.6146	0.388192	0.300789
12.8974	12.6141	0.391685	0.300312
12.8978	12.6137	0.388102	0.300825
12.8983	12.6132	0.388663	0.301213
12.8988	12.6127	0.388496	0.299163
