# 1304     AichiSR QXAFS
# Start     : 8.9544
# End       : 9.0544
# Dir       : Forward
# Points    : 300
# ScanTime  : 1.01549
# Date      : 13.04.23 22:26
# Ring Cur. : 25.5[mA]
12.7557	12.7557	0.398497	1.21333
12.7562	12.7553	0.397507	1.21585
12.7566	12.7548	0.398397	1.21397
12.7571	12.7543	0.399334	1.21231
12.7576	12.7538	0.397504	1.21795
12.7581	12.7534	0.399344	1.21564
12.7585	12.7529	0.398021	1.21855
12.759	12.7524	0.398096	1.21293
12.7595	12.752	0.39992	1.21545
12.7599	12.7515	0.398954	1.21471
12.7604	12.751	0.39951	1.21685
12.7609	12.7506	0.398492	1.21617
12.7614	12.7501	0.398483	1.21385
12.7618	12.7496	0.40015	1.21498
12.7623	12.7492	0.399188	1.21582
12.7628	12.7487	0.399479	1.21887
12.7632	12.7482	0.399553	1.2197
12.7637	12.7478	0.398401	1.21484
12.7642	12.7473	0.399272	1.21239
12.7647	12.7468	0.400385	1.21365
12.7651	12.7463	0.400581	1.21777
12.7656	12.7459	0.397638	1.21504
12.7661	12.7454	0.398436	1.21292
12.7666	12.7449	0.400653	1.21355
12.767	12.7444	0.400179	1.21437
12.7675	12.744	0.400014	1.21711
12.768	12.7435	0.398631	1.21556
12.7684	12.743	0.398067	1.2102
12.7689	12.7426	0.399787	1.21036
12.7694	12.7421	0.400123	1.21128
12.7699	12.7416	0.400829	1.21179
12.7703	12.7412	0.398893	1.21357
12.7708	12.7407	0.399432	1.20911
12.7713	12.7402	0.40006	1.20791
12.7717	12.7397	0.400274	1.20932
12.7722	12.7393	0.400673	1.21322
12.7727	12.7388	0.401449	1.21118
12.7732	12.7383	0.398847	1.20652
12.7736	12.7379	0.399666	1.20537
12.7741	12.7374	0.401803	1.20856
12.7746	12.7369	0.400467	1.20844
12.7751	12.7364	0.399033	1.20513
12.7755	12.7359	0.399088	1.19873
12.776	12.7355	0.400648	1.20175
12.7765	12.735	0.400674	1.20273
12.7769	12.7345	0.400399	1.20278
12.7774	12.734	0.399864	1.20152
12.7779	12.7335	0.398951	1.19491
12.7784	12.7331	0.400845	1.19503
12.7788	12.7326	0.399941	1.19296
12.7793	12.7321	0.399277	1.193
12.7798	12.7317	0.397192	1.18759
12.7802	12.7312	0.398679	1.18327
12.7807	12.7307	0.399775	1.18075
12.7812	12.7302	0.398523	1.18122
12.7817	12.7298	0.399557	1.17477
12.7821	12.7293	0.398568	1.17478
12.7826	12.7288	0.398971	1.16524
12.7831	12.7284	0.399531	1.15668
12.7836	12.7279	0.400192	1.14937
12.784	12.7274	0.398684	1.14452
12.7845	12.727	0.396695	1.13138
12.785	12.7265	0.395678	1.10757
12.7854	12.726	0.396431	1.08729
12.7859	12.7255	0.395125	1.06121
12.7864	12.725	0.39461	1.02346
12.7869	12.7246	0.392917	0.979389
12.7873	12.7241	0.393493	0.922883
12.7878	12.7236	0.395057	0.857621
12.7883	12.7232	0.397119	0.801248
12.7887	12.7227	0.398785	0.744799
12.7892	12.7222	0.398471	0.696328
12.7897	12.7218	0.398394	0.659665
12.7902	12.7213	0.39978	0.635866
12.7906	12.7208	0.396996	0.621848
12.7911	12.7203	0.398095	0.6191
12.7916	12.7199	0.399648	0.619189
12.7921	12.7194	0.398364	0.618637
12.7925	12.719	0.398922	0.622912
12.793	12.7185	0.398297	0.628114
12.7935	12.718	0.399189	0.636084
12.7939	12.7176	0.398399	0.634553
12.7944	12.7171	0.397735	0.627052
12.7949	12.7166	0.400257	0.622734
12.7954	12.7161	0.398796	0.615076
12.7958	12.7156	0.39855	0.604544
12.7963	12.7152	0.398362	0.593522
12.7968	12.7147	0.397878	0.580155
12.7972	12.7142	0.399751	0.568934
12.7977	12.7137	0.398241	0.559572
12.7982	12.7133	0.398722	0.551182
12.7987	12.7128	0.397906	0.539868
12.7991	12.7123	0.397185	0.527445
12.7996	12.7119	0.398999	0.517069
12.8001	12.7114	0.397584	0.502793
12.8006	12.7109	0.397985	0.49054
12.801	12.7104	0.397898	0.477611
12.8015	12.71	0.398069	0.46048
12.802	12.7095	0.400087	0.44319
12.8024	12.709	0.398137	0.42634
12.8029	12.7086	0.398888	0.411602
12.8034	12.7081	0.39728	0.393182
12.8039	12.7076	0.396494	0.374728
12.8043	12.7071	0.398788	0.362114
12.8048	12.7067	0.397543	0.347497
12.8053	12.7062	0.396996	0.333865
12.8057	12.7057	0.39769	0.322174
12.8062	12.7052	0.397665	0.308877
12.8067	12.7047	0.397473	0.300078
12.8072	12.7043	0.397087	0.292477
12.8076	12.7038	0.397192	0.287294
12.8081	12.7033	0.396389	0.284317
12.8086	12.7028	0.396151	0.27929
12.8091	12.7024	0.398866	0.278759
12.8095	12.7019	0.39678	0.27951
12.81	12.7014	0.396426	0.282244
12.8105	12.701	0.39855	0.285753
12.8109	12.7005	0.396976	0.287516
12.8114	12.7	0.397041	0.291771
12.8119	12.6995	0.396842	0.29824
12.8124	12.6991	0.394831	0.302901
12.8128	12.6986	0.396342	0.304735
12.8133	12.6982	0.395178	0.308929
12.8138	12.6977	0.398506	0.313982
12.8142	12.6972	0.396762	0.317623
12.8147	12.6967	0.395526	0.320281
12.8152	12.6963	0.394796	0.319634
12.8157	12.6958	0.395864	0.321203
12.8161	12.6953	0.398157	0.319776
12.8166	12.6948	0.396529	0.319342
12.8171	12.6944	0.395993	0.318237
12.8176	12.6939	0.395708	0.313083
12.818	12.6934	0.395128	0.307778
12.8185	12.6929	0.396363	0.302722
12.819	12.6925	0.394222	0.29918
12.8194	12.692	0.395835	0.292091
12.8199	12.6916	0.393658	0.286395
12.8204	12.6911	0.394088	0.280392
12.8209	12.6906	0.39615	0.2771
12.8213	12.6901	0.394386	0.274854
12.8218	12.6897	0.394403	0.272957
12.8223	12.6892	0.393465	0.270957
12.8227	12.6888	0.39281	0.269507
12.8232	12.6883	0.395691	0.272538
12.8237	12.6878	0.394856	0.277588
12.8242	12.6873	0.394308	0.27941
12.8246	12.6869	0.392702	0.28205
12.8251	12.6864	0.393061	0.286174
12.8256	12.6859	0.393234	0.290491
12.8261	12.6854	0.391854	0.296674
12.8265	12.6849	0.39108	0.299236
12.827	12.6845	0.392021	0.30218
12.8275	12.684	0.391737	0.304134
12.8279	12.6835	0.392267	0.308817
12.8284	12.683	0.392628	0.31248
12.8289	12.6826	0.391111	0.315771
12.8294	12.6821	0.391713	0.317111
12.8298	12.6817	0.393654	0.31831
12.8303	12.6812	0.394773	0.323019
12.8308	12.6807	0.393106	0.327392
12.8312	12.6802	0.393396	0.331319
12.8317	12.6797	0.39248	0.331674
12.8322	12.6793	0.393384	0.332532
12.8327	12.6788	0.39439	0.336113
12.8331	12.6784	0.393317	0.33785
12.8336	12.6779	0.39206	0.34067
12.8341	12.6774	0.392673	0.339089
12.8346	12.6769	0.393858	0.338719
12.835	12.6764	0.392312	0.339572
12.8355	12.676	0.394252	0.339603
12.836	12.6755	0.394341	0.339667
12.8364	12.675	0.39394	0.336488
12.8369	12.6745	0.393284	0.335977
12.8374	12.674	0.39494	0.335448
12.8379	12.6736	0.393745	0.334807
12.8383	12.6731	0.392597	0.333726
12.8388	12.6726	0.393388	0.332408
12.8393	12.6722	0.39369	0.329117
12.8397	12.6717	0.392563	0.327898
12.8402	12.6712	0.392872	0.327805
12.8407	12.6708	0.393922	0.326258
12.8412	12.6703	0.390995	0.322802
12.8416	12.6698	0.392469	0.32012
12.8421	12.6694	0.392692	0.317407
12.8426	12.6689	0.393238	0.317107
12.8431	12.6684	0.390797	0.313116
12.8435	12.668	0.392263	0.310656
12.844	12.6675	0.392262	0.307085
12.8445	12.667	0.392586	0.3043
12.8449	12.6665	0.392047	0.304089
12.8454	12.6661	0.390504	0.302307
12.8459	12.6656	0.391433	0.297391
12.8464	12.6651	0.39156	0.294562
12.8468	12.6646	0.392291	0.29373
12.8473	12.6642	0.391552	0.292532
12.8478	12.6637	0.391198	0.289445
12.8482	12.6632	0.39127	0.287173
12.8487	12.6628	0.391002	0.283895
12.8492	12.6623	0.391189	0.283223
12.8497	12.6618	0.391305	0.281901
12.8501	12.6614	0.391139	0.279919
12.8506	12.6609	0.390344	0.27719
12.8511	12.6604	0.39074	0.273206
12.8516	12.6599	0.391564	0.273632
12.852	12.6595	0.39113	0.2719
12.8525	12.659	0.388072	0.271436
12.853	12.6585	0.388922	0.269089
12.8534	12.6581	0.390536	0.2671
12.8539	12.6576	0.390175	0.267051
12.8544	12.6571	0.39034	0.268681
12.8549	12.6566	0.389111	0.267685
12.8553	12.6562	0.387839	0.26696
12.8558	12.6557	0.388807	0.269068
12.8563	12.6552	0.390844	0.270203
12.8567	12.6547	0.388707	0.272529
12.8572	12.6542	0.389361	0.273216
12.8577	12.6538	0.388941	0.274177
12.8582	12.6533	0.388981	0.276187
12.8586	12.6528	0.389576	0.2795
12.8591	12.6524	0.390274	0.28196
12.8596	12.6519	0.387948	0.282685
12.8601	12.6514	0.389016	0.283953
12.8605	12.651	0.389383	0.285865
12.861	12.6505	0.391016	0.290362
12.8615	12.65	0.390151	0.292628
12.8619	12.6495	0.387114	0.293799
12.8624	12.6491	0.38859	0.295998
12.8629	12.6486	0.38865	0.298043
12.8634	12.6481	0.388556	0.300316
12.8638	12.6476	0.387319	0.302847
12.8643	12.6472	0.384977	0.303831
12.8648	12.6467	0.384373	0.30345
12.8652	12.6462	0.383524	0.304271
12.8657	12.6457	0.384809	0.306155
12.8662	12.6453	0.383452	0.307748
12.8667	12.6448	0.382547	0.309208
12.8671	12.6443	0.382791	0.309042
12.8676	12.6438	0.385356	0.311076
12.8681	12.6434	0.384373	0.312042
12.8686	12.6429	0.385414	0.314473
12.869	12.6424	0.385047	0.314536
12.8695	12.642	0.384005	0.312726
12.87	12.6415	0.384896	0.312927
12.8704	12.641	0.386386	0.315423
12.8709	12.6405	0.385273	0.315188
12.8714	12.6401	0.383208	0.313796
12.8719	12.6396	0.383896	0.312495
12.8723	12.6392	0.385962	0.313623
12.8728	12.6387	0.38471	0.313501
12.8733	12.6382	0.386205	0.313356
12.8737	12.6378	0.383829	0.311767
12.8742	12.6373	0.38483	0.309492
12.8747	12.6368	0.38548	0.30926
12.8752	12.6363	0.384299	0.309152
12.8756	12.6359	0.384366	0.31027
12.8761	12.6354	0.383628	0.308594
12.8766	12.6349	0.38423	0.305319
12.8771	12.6344	0.386777	0.307728
12.8775	12.6339	0.388634	0.309843
12.878	12.6335	0.384794	0.307728
12.8785	12.633	0.382369	0.305773
12.8789	12.6326	0.383226	0.303929
12.8794	12.6321	0.3847	0.304233
12.8799	12.6316	0.384603	0.306012
12.8804	12.6311	0.385381	0.307824
12.8808	12.6307	0.382156	0.305445
12.8813	12.6302	0.382574	0.304691
12.8818	12.6297	0.385045	0.307171
12.8822	12.6293	0.384735	0.307029
12.8827	12.6288	0.383305	0.307232
12.8832	12.6283	0.382359	0.30746
12.8837	12.6279	0.380446	0.305476
12.8841	12.6274	0.38422	0.305248
12.8846	12.6269	0.382681	0.30668
12.8851	12.6264	0.3832	0.306287
12.8856	12.6259	0.381304	0.304815
12.886	12.6255	0.382843	0.303053
12.8865	12.625	0.383789	0.303333
12.887	12.6245	0.383823	0.304964
12.8874	12.624	0.383744	0.305069
12.8879	12.6235	0.383921	0.302806
12.8884	12.6231	0.380976	0.300912
12.8889	12.6226	0.384227	0.300389
12.8893	12.6221	0.384531	0.301065
12.8898	12.6217	0.383641	0.301209
12.8903	12.6212	0.381966	0.299575
12.8907	12.6207	0.383132	0.298239
12.8912	12.6202	0.384678	0.297523
12.8917	12.6198	0.383266	0.298017
12.8922	12.6193	0.383738	0.298558
12.8926	12.6188	0.384222	0.298504
12.8931	12.6184	0.382458	0.296025
12.8936	12.6179	0.3846	0.29764
12.8941	12.6174	0.384653	0.298281
12.8945	12.6169	0.383729	0.297969
12.895	12.6165	0.383397	0.298491
12.8955	12.616	0.38456	0.295159
12.8959	12.6155	0.3862	0.297887
12.8964	12.615	0.383461	0.298028
12.8969	12.6146	0.384556	0.299021
12.8974	12.6141	0.384053	0.297396
12.8978	12.6136	0.382152	0.295987
12.8983	12.6131	0.384222	0.295544
12.8988	12.6127	0.385372	0.297155
