# 1304     AichiSR QXAFS
# Start     : 8.9544
# End       : 9.0544
# Dir       : Backward
# Points    : 300
# ScanTime  : 1.01549
# Date      : 13.04.23 22:25
# Ring Cur. : 25.4[mA]
12.7557	12.6118	0.304025	0.231836
12.7562	12.6122	0.303473	0.231513
12.7566	12.6127	0.303007	0.23398
12.7571	12.6131	0.303474	0.234729
12.7576	12.6136	0.302915	0.236151
12.7581	12.6141	0.303718	0.234878
12.7585	12.6145	0.306232	0.236244
12.759	12.615	0.30438	0.236694
12.7595	12.6155	0.304589	0.23726
12.7599	12.616	0.306186	0.239536
12.7604	12.6165	0.304972	0.236919
12.7609	12.6169	0.305311	0.236846
12.7614	12.6174	0.305526	0.237662
12.7618	12.6179	0.307572	0.240189
12.7623	12.6184	0.305986	0.237793
12.7628	12.6188	0.306487	0.23842
12.7632	12.6193	0.308469	0.238575
12.7637	12.6198	0.307407	0.239308
12.7642	12.6202	0.307571	0.240022
12.7647	12.6207	0.307903	0.241253
12.7651	12.6212	0.308585	0.239301
12.7656	12.6217	0.307361	0.236999
12.7661	12.6221	0.3081	0.242169
12.7666	12.6226	0.306179	0.241087
12.767	12.6231	0.305809	0.241835
12.7675	12.6235	0.306199	0.240052
12.768	12.624	0.309663	0.242029
12.7684	12.6245	0.30771	0.242791
12.7689	12.625	0.305494	0.243788
12.7694	12.6254	0.309177	0.246557
12.7699	12.6259	0.30775	0.245037
12.7703	12.6264	0.307658	0.244551
12.7708	12.6269	0.305783	0.247224
12.7713	12.6274	0.308781	0.248627
12.7717	12.6278	0.30661	0.248439
12.7722	12.6283	0.306695	0.245823
12.7727	12.6288	0.309863	0.247497
12.7732	12.6292	0.309155	0.247797
12.7736	12.6297	0.308923	0.250192
12.7741	12.6302	0.308114	0.248347
12.7746	12.6306	0.309305	0.246805
12.7751	12.6311	0.309872	0.246312
12.7755	12.6316	0.31063	0.248317
12.776	12.6321	0.309128	0.249441
12.7765	12.6325	0.310619	0.248431
12.7769	12.633	0.309491	0.24582
12.7774	12.6335	0.311816	0.246977
12.7779	12.6339	0.309741	0.248
12.7784	12.6344	0.30955	0.248897
12.7788	12.6349	0.311132	0.248942
12.7793	12.6354	0.309057	0.247141
12.7798	12.6358	0.310173	0.248262
12.7802	12.6363	0.310356	0.250999
12.7807	12.6368	0.309472	0.251668
12.7812	12.6373	0.308479	0.250139
12.7817	12.6377	0.308596	0.249119
12.7821	12.6382	0.311564	0.252177
12.7826	12.6387	0.312184	0.253586
12.7831	12.6391	0.310913	0.254063
12.7836	12.6396	0.311351	0.25586
12.784	12.6401	0.311802	0.252515
12.7845	12.6405	0.312065	0.253504
12.785	12.641	0.312305	0.25697
12.7854	12.6415	0.312093	0.256861
12.7859	12.642	0.309543	0.253573
12.7864	12.6424	0.310484	0.252692
12.7869	12.6429	0.312894	0.254307
12.7873	12.6433	0.310902	0.252179
12.7878	12.6438	0.309822	0.253876
12.7883	12.6443	0.312195	0.253006
12.7887	12.6447	0.310071	0.251288
12.7892	12.6452	0.309392	0.248173
12.7897	12.6457	0.310842	0.250587
12.7902	12.6462	0.310554	0.251242
12.7906	12.6467	0.309155	0.247763
12.7911	12.6472	0.310377	0.245717
12.7916	12.6476	0.31301	0.246599
12.7921	12.6481	0.312512	0.246041
12.7925	12.6486	0.311213	0.245754
12.793	12.6491	0.314233	0.244108
12.7935	12.6495	0.312111	0.239754
12.7939	12.65	0.313722	0.238423
12.7944	12.6505	0.313719	0.237882
12.7949	12.6509	0.314697	0.238054
12.7954	12.6514	0.313193	0.233633
12.7958	12.6519	0.314504	0.231666
12.7963	12.6524	0.315458	0.230453
12.7968	12.6528	0.314025	0.228518
12.7972	12.6533	0.315633	0.228536
12.7977	12.6538	0.315662	0.225288
12.7982	12.6542	0.316093	0.222755
12.7987	12.6547	0.315299	0.221248
12.7991	12.6552	0.315258	0.222098
12.7996	12.6557	0.315284	0.221349
12.8001	12.6561	0.315046	0.218934
12.8006	12.6566	0.315386	0.217153
12.801	12.6571	0.316606	0.217689
12.8015	12.6576	0.315461	0.217854
12.802	12.6581	0.315125	0.218632
12.8024	12.6585	0.316105	0.217952
12.8029	12.659	0.316353	0.216908
12.8034	12.6595	0.31503	0.218301
12.8039	12.6599	0.315086	0.220545
12.8043	12.6604	0.315593	0.222762
12.8048	12.6609	0.315356	0.222856
12.8053	12.6613	0.316865	0.223171
12.8057	12.6618	0.317573	0.22617
12.8062	12.6623	0.315423	0.228541
12.8067	12.6627	0.316855	0.23027
12.8072	12.6632	0.316878	0.230446
12.8076	12.6637	0.317265	0.23151
12.8081	12.6641	0.318427	0.234298
12.8086	12.6646	0.318247	0.236499
12.8091	12.6651	0.316087	0.238854
12.8095	12.6656	0.317938	0.238255
12.81	12.666	0.318893	0.240283
12.8105	12.6665	0.317974	0.242998
12.8109	12.667	0.316328	0.244735
12.8114	12.6675	0.317394	0.247876
12.8119	12.6679	0.317942	0.250847
12.8124	12.6684	0.319234	0.250509
12.8128	12.6689	0.316133	0.252106
12.8133	12.6693	0.316549	0.253832
12.8138	12.6698	0.317434	0.259443
12.8142	12.6703	0.316343	0.258896
12.8147	12.6707	0.317473	0.260199
12.8152	12.6712	0.318539	0.263542
12.8157	12.6717	0.316736	0.265577
12.8161	12.6722	0.317077	0.267735
12.8166	12.6726	0.318908	0.266698
12.8171	12.6731	0.319794	0.269152
12.8176	12.6736	0.317247	0.269589
12.818	12.674	0.318364	0.271976
12.8185	12.6745	0.318682	0.27262
12.819	12.675	0.316902	0.271841
12.8194	12.6755	0.320005	0.274268
12.8199	12.676	0.320398	0.27452
12.8204	12.6764	0.319043	0.27432
12.8209	12.6769	0.317577	0.275738
12.8213	12.6774	0.32133	0.277076
12.8218	12.6779	0.321627	0.275781
12.8223	12.6783	0.318797	0.274453
12.8227	12.6788	0.319781	0.275685
12.8232	12.6793	0.319898	0.275711
12.8237	12.6797	0.318887	0.27329
12.8242	12.6802	0.320188	0.270592
12.8246	12.6807	0.320102	0.270231
12.8251	12.6812	0.319562	0.267387
12.8256	12.6816	0.317944	0.265076
12.8261	12.6821	0.319223	0.262331
12.8265	12.6826	0.321407	0.25932
12.827	12.683	0.318305	0.256854
12.8275	12.6835	0.318155	0.255025
12.8279	12.684	0.317521	0.25328
12.8284	12.6845	0.317637	0.249955
12.8289	12.6849	0.321133	0.247659
12.8294	12.6854	0.318423	0.245816
12.8298	12.6859	0.318942	0.242491
12.8303	12.6864	0.3183	0.239657
12.8308	12.6869	0.319202	0.234606
12.8312	12.6873	0.321693	0.232476
12.8317	12.6878	0.320035	0.228708
12.8322	12.6883	0.319855	0.227403
12.8327	12.6887	0.318336	0.222916
12.8331	12.6892	0.319322	0.220573
12.8336	12.6897	0.321855	0.220254
12.8341	12.6901	0.32234	0.220966
12.8346	12.6906	0.32036	0.222503
12.835	12.6911	0.31877	0.224097
12.8355	12.6916	0.320035	0.22643
12.836	12.692	0.322653	0.231812
12.8364	12.6925	0.321016	0.235256
12.8369	12.6929	0.320484	0.240248
12.8374	12.6934	0.318925	0.24484
12.8379	12.6939	0.318756	0.247595
12.8383	12.6943	0.32158	0.251972
12.8388	12.6948	0.321613	0.256775
12.8393	12.6953	0.317909	0.25782
12.8397	12.6958	0.317745	0.258921
12.8402	12.6963	0.32069	0.260693
12.8407	12.6967	0.321195	0.26093
12.8412	12.6972	0.318215	0.257732
12.8416	12.6977	0.318265	0.257462
12.8421	12.6982	0.32067	0.256139
12.8426	12.6986	0.317891	0.250617
12.8431	12.6991	0.320837	0.248488
12.8435	12.6995	0.320887	0.246388
12.844	12.7	0.317029	0.241357
12.8445	12.7005	0.317004	0.236546
12.8449	12.701	0.320009	0.234173
12.8454	12.7014	0.319841	0.230605
12.8459	12.7019	0.316883	0.227923
12.8464	12.7024	0.319842	0.227801
12.8468	12.7028	0.320246	0.225577
12.8473	12.7033	0.316077	0.222794
12.8478	12.7038	0.32032	0.226309
12.8482	12.7043	0.321167	0.230664
12.8487	12.7047	0.318184	0.234421
12.8492	12.7052	0.317271	0.238449
12.8497	12.7057	0.321353	0.247227
12.8501	12.7062	0.321826	0.255659
12.8506	12.7067	0.318478	0.26418
12.8511	12.7071	0.319329	0.275739
12.8516	12.7076	0.318817	0.286587
12.852	12.7081	0.318899	0.296065
12.8525	12.7086	0.321267	0.312579
12.853	12.709	0.321263	0.326749
12.8534	12.7095	0.319999	0.338331
12.8539	12.71	0.320812	0.352287
12.8544	12.7104	0.32055	0.36445
12.8549	12.7109	0.322343	0.377707
12.8553	12.7114	0.321222	0.389704
12.8558	12.7119	0.319959	0.403818
12.8563	12.7123	0.319342	0.411652
12.8567	12.7128	0.31863	0.418706
12.8572	12.7133	0.321465	0.43291
12.8577	12.7137	0.321654	0.441904
12.8582	12.7142	0.319702	0.447812
12.8586	12.7147	0.318961	0.455979
12.8591	12.7152	0.320094	0.462467
12.8596	12.7156	0.322318	0.47194
12.8601	12.7161	0.320592	0.482604
12.8605	12.7166	0.3209	0.492125
12.861	12.7171	0.320868	0.498478
12.8615	12.7175	0.318695	0.501603
12.8619	12.718	0.322647	0.511564
12.8624	12.7185	0.323353	0.515279
12.8629	12.719	0.317395	0.50791
12.8634	12.7194	0.31852	0.50246
12.8638	12.7199	0.319597	0.498448
12.8643	12.7203	0.321148	0.496605
12.8648	12.7208	0.317751	0.495327
12.8652	12.7213	0.319108	0.49805
12.8657	12.7218	0.318146	0.502623
12.8662	12.7222	0.317598	0.513503
12.8667	12.7227	0.321102	0.540332
12.8671	12.7231	0.318837	0.575044
12.8676	12.7236	0.317208	0.615452
12.8681	12.7241	0.314588	0.66124
12.8686	12.7246	0.315545	0.714756
12.869	12.725	0.314819	0.756592
12.8695	12.7255	0.315791	0.800322
12.87	12.726	0.314992	0.838853
12.8704	12.7265	0.316177	0.860987
12.8709	12.7269	0.316399	0.878221
12.8714	12.7274	0.320379	0.898664
12.8719	12.7279	0.320173	0.913803
12.8723	12.7284	0.3163	0.916189
12.8728	12.7288	0.319009	0.922787
12.8733	12.7293	0.321809	0.93592
12.8737	12.7298	0.320167	0.938555
12.8742	12.7302	0.31984	0.940439
12.8747	12.7307	0.318933	0.947713
12.8752	12.7312	0.320872	0.950901
12.8756	12.7317	0.320381	0.949263
12.8761	12.7321	0.321442	0.955519
12.8766	12.7326	0.322297	0.960005
12.8771	12.7331	0.321315	0.959215
12.8775	12.7335	0.321259	0.96215
12.878	12.734	0.32232	0.963996
12.8785	12.7345	0.323726	0.966918
12.8789	12.735	0.322666	0.970142
12.8794	12.7355	0.321667	0.973169
12.8799	12.7359	0.322559	0.968717
12.8804	12.7364	0.32395	0.972613
12.8808	12.7369	0.325334	0.978381
12.8813	12.7374	0.323877	0.982199
12.8818	12.7379	0.322739	0.978488
12.8822	12.7383	0.322484	0.973932
12.8827	12.7388	0.325547	0.98425
12.8832	12.7393	0.325679	0.984082
12.8837	12.7397	0.323423	0.979761
12.8841	12.7402	0.323231	0.98217
12.8846	12.7407	0.324878	0.985218
12.8851	12.7412	0.324493	0.985687
12.8856	12.7416	0.324768	0.986675
12.886	12.7421	0.326921	0.991278
12.8865	12.7426	0.325894	0.992541
12.887	12.743	0.325166	0.987029
12.8874	12.7435	0.326696	0.993373
12.8879	12.744	0.328263	0.995405
12.8884	12.7444	0.327539	0.993634
12.8889	12.7449	0.325767	0.996759
12.8893	12.7454	0.326436	0.99315
12.8898	12.7459	0.327707	0.993098
12.8903	12.7463	0.328918	0.999057
12.8907	12.7468	0.328962	1.00075
12.8912	12.7473	0.326161	0.995892
12.8917	12.7478	0.326254	0.995697
12.8922	12.7482	0.330602	1.00409
12.8926	12.7487	0.330031	0.999178
12.8931	12.7492	0.328181	0.999465
12.8936	12.7496	0.328454	1.00816
12.8941	12.7501	0.328466	1.00058
12.8945	12.7506	0.328602	0.999097
12.895	12.751	0.330624	1.00573
12.8955	12.7515	0.331431	1.01242
12.8959	12.752	0.327189	1.00112
12.8964	12.7524	0.326989	0.997323
12.8969	12.7529	0.329925	1.00627
12.8974	12.7534	0.330612	1.00431
12.8978	12.7538	0.328397	1.00276
12.8983	12.7543	0.328573	1.00698
12.8988	12.7548	0.32947	1.00281
