# 1304     AichiSR QXAFS
# Start     : 8.9544
# End       : 9.0544
# Dir       : Forward
# Points    : 300
# ScanTime  : 1.01549
# Date      : 13.04.23 22:28
# Ring Cur. : 25.5[mA]
12.7557	12.7558	0.404044	1.22631
12.7562	12.7553	0.4021	1.22626
12.7566	12.7548	0.401539	1.22715
12.7571	12.7543	0.401576	1.22546
12.7576	12.7538	0.401199	1.22469
12.7581	12.7534	0.403232	1.22038
12.7585	12.7529	0.40259	1.22398
12.759	12.7525	0.402035	1.22449
12.7595	12.752	0.400763	1.22414
12.7599	12.7515	0.400012	1.22208
12.7604	12.7511	0.403088	1.22016
12.7609	12.7506	0.400686	1.22045
12.7614	12.7501	0.400279	1.22194
12.7618	12.7496	0.401781	1.22234
12.7623	12.7492	0.399896	1.21799
12.7628	12.7487	0.401851	1.21952
12.7632	12.7483	0.401353	1.21932
12.7637	12.7478	0.401587	1.22367
12.7642	12.7473	0.399508	1.22151
12.7647	12.7468	0.39952	1.21701
12.7651	12.7464	0.401911	1.216
12.7656	12.7459	0.399281	1.21642
12.7661	12.7454	0.399643	1.22141
12.7666	12.7449	0.399998	1.21802
12.767	12.7444	0.399193	1.21311
12.7675	12.744	0.400772	1.21362
12.768	12.7435	0.399645	1.21253
12.7684	12.743	0.400116	1.21443
12.7689	12.7426	0.398231	1.21153
12.7694	12.7421	0.399348	1.20871
12.7699	12.7416	0.401388	1.21039
12.7703	12.7412	0.399862	1.21099
12.7708	12.7407	0.399033	1.21143
12.7713	12.7402	0.398536	1.21215
12.7717	12.7397	0.398537	1.20748
12.7722	12.7393	0.400162	1.20593
12.7727	12.7388	0.400364	1.20969
12.7732	12.7383	0.398614	1.2093
12.7736	12.7379	0.398484	1.20471
12.7741	12.7374	0.397678	1.20128
12.7746	12.7369	0.399366	1.2003
12.7751	12.7364	0.399017	1.20098
12.7755	12.736	0.399249	1.20247
12.776	12.7355	0.398966	1.20161
12.7765	12.735	0.396843	1.19616
12.7769	12.7345	0.399725	1.19351
12.7774	12.734	0.398878	1.19723
12.7779	12.7336	0.397774	1.19605
12.7784	12.7331	0.397777	1.18914
12.7788	12.7326	0.397634	1.18689
12.7793	12.7322	0.399057	1.18527
12.7798	12.7317	0.396256	1.18289
12.7802	12.7312	0.394232	1.18326
12.7807	12.7307	0.396077	1.17724
12.7812	12.7303	0.397308	1.17235
12.7817	12.7298	0.399608	1.16699
12.7821	12.7293	0.397118	1.16097
12.7826	12.7289	0.396056	1.16212
12.7831	12.7284	0.397356	1.15247
12.7836	12.7279	0.396102	1.14182
12.784	12.7274	0.396385	1.13257
12.7845	12.727	0.395236	1.12217
12.785	12.7265	0.393246	1.10601
12.7854	12.726	0.393921	1.08273
12.7859	12.7255	0.391201	1.05024
12.7864	12.7251	0.390582	1.0131
12.7869	12.7246	0.389712	0.966577
12.7873	12.7241	0.3908	0.914339
12.7878	12.7236	0.391867	0.852373
12.7883	12.7232	0.394089	0.788142
12.7887	12.7227	0.396388	0.733293
12.7892	12.7223	0.394897	0.68414
12.7897	12.7218	0.394221	0.653195
12.7902	12.7213	0.395659	0.632049
12.7906	12.7208	0.394661	0.616958
12.7911	12.7204	0.395016	0.611736
12.7916	12.7199	0.39584	0.613673
12.7921	12.7194	0.394718	0.617306
12.7925	12.719	0.395441	0.619304
12.793	12.7185	0.394942	0.622885
12.7935	12.718	0.397197	0.626552
12.7939	12.7176	0.394452	0.627132
12.7944	12.7171	0.394152	0.623524
12.7949	12.7166	0.393779	0.617911
12.7954	12.7161	0.392756	0.605953
12.7958	12.7157	0.394826	0.596663
12.7963	12.7152	0.395237	0.587108
12.7968	12.7147	0.393075	0.575035
12.7972	12.7142	0.394307	0.564652
12.7977	12.7137	0.394497	0.555811
12.7982	12.7133	0.395426	0.545185
12.7987	12.7128	0.394292	0.534697
12.7991	12.7123	0.394875	0.5251
12.7996	12.7119	0.394624	0.511533
12.8001	12.7114	0.393939	0.497314
12.8006	12.7109	0.394284	0.484419
12.801	12.7105	0.393757	0.470428
12.8015	12.71	0.394499	0.455535
12.802	12.7095	0.39236	0.437868
12.8024	12.7091	0.393386	0.421423
12.8029	12.7086	0.394236	0.406259
12.8034	12.7081	0.392598	0.389694
12.8039	12.7076	0.392185	0.373913
12.8043	12.7072	0.392168	0.358181
12.8048	12.7067	0.392288	0.342534
12.8053	12.7062	0.39605	0.32972
12.8057	12.7057	0.393521	0.318888
12.8062	12.7052	0.392018	0.307416
12.8067	12.7048	0.391559	0.296769
12.8072	12.7043	0.39207	0.288654
12.8076	12.7038	0.393496	0.282614
12.8081	12.7033	0.394191	0.279501
12.8086	12.7029	0.391905	0.275747
12.8091	12.7024	0.391064	0.275472
12.8095	12.7019	0.392456	0.275862
12.81	12.7015	0.392866	0.278028
12.8105	12.701	0.392065	0.282495
12.8109	12.7005	0.392055	0.286272
12.8114	12.7	0.392295	0.290134
12.8119	12.6996	0.391647	0.292404
12.8124	12.6991	0.392665	0.296709
12.8128	12.6987	0.392004	0.30279
12.8133	12.6982	0.390493	0.307901
12.8138	12.6977	0.392115	0.309303
12.8142	12.6972	0.390818	0.311413
12.8147	12.6968	0.392034	0.314589
12.8152	12.6963	0.392573	0.317923
12.8157	12.6958	0.390048	0.317129
12.8161	12.6953	0.388807	0.316351
12.8166	12.6948	0.391329	0.314175
12.8171	12.6944	0.391556	0.312495
12.8176	12.6939	0.391321	0.310728
12.818	12.6934	0.389342	0.305816
12.8185	12.693	0.389373	0.299421
12.819	12.6925	0.390902	0.292975
12.8194	12.6921	0.389941	0.288215
12.8199	12.6916	0.390018	0.283629
12.8204	12.6911	0.388528	0.279193
12.8209	12.6906	0.388625	0.273061
12.8213	12.6902	0.389033	0.268511
12.8218	12.6897	0.390541	0.26872
12.8223	12.6892	0.389052	0.268858
12.8227	12.6888	0.387384	0.269617
12.8232	12.6883	0.386608	0.269101
12.8237	12.6878	0.388226	0.269578
12.8242	12.6874	0.389846	0.273691
12.8246	12.6869	0.38777	0.280448
12.8251	12.6864	0.386057	0.282862
12.8256	12.6859	0.385387	0.287558
12.8261	12.6854	0.387791	0.288898
12.8265	12.685	0.388147	0.294273
12.827	12.6845	0.385741	0.298996
12.8275	12.684	0.385458	0.302129
12.8279	12.6835	0.38639	0.303059
12.8284	12.6831	0.385521	0.305322
12.8289	12.6826	0.38627	0.30866
12.8294	12.6821	0.386792	0.314541
12.8298	12.6817	0.386304	0.316546
12.8303	12.6812	0.38543	0.318945
12.8308	12.6807	0.388252	0.320779
12.8312	12.6802	0.393204	0.327618
12.8317	12.6798	0.389374	0.32968
12.8322	12.6793	0.386626	0.330049
12.8327	12.6788	0.386961	0.330369
12.8331	12.6784	0.387351	0.330742
12.8336	12.6779	0.387038	0.332949
12.8341	12.6774	0.388368	0.336381
12.8346	12.6769	0.386364	0.335524
12.835	12.6765	0.385776	0.334954
12.8355	12.676	0.387418	0.33391
12.836	12.6755	0.389478	0.33255
12.8364	12.675	0.388367	0.332282
12.8369	12.6745	0.386219	0.332334
12.8374	12.6741	0.386688	0.329599
12.8379	12.6736	0.386607	0.328512
12.8383	12.6731	0.38699	0.328497
12.8388	12.6726	0.3872	0.327895
12.8393	12.6722	0.386728	0.327203
12.8397	12.6717	0.386916	0.322992
12.8402	12.6713	0.386806	0.32255
12.8407	12.6708	0.387045	0.321456
12.8412	12.6703	0.388892	0.31884
12.8416	12.6698	0.385668	0.317385
12.8421	12.6694	0.386819	0.314788
12.8426	12.6689	0.387425	0.310171
12.8431	12.6685	0.388156	0.307635
12.8435	12.668	0.387946	0.307868
12.844	12.6675	0.386651	0.306734
12.8445	12.667	0.388811	0.302808
12.8449	12.6666	0.388469	0.300071
12.8454	12.6661	0.387686	0.298368
12.8459	12.6656	0.389537	0.29732
12.8464	12.6651	0.387538	0.293035
12.8468	12.6646	0.388187	0.292241
12.8473	12.6642	0.388783	0.287831
12.8478	12.6637	0.389369	0.285807
12.8482	12.6632	0.38869	0.284921
12.8487	12.6628	0.387985	0.283818
12.8492	12.6623	0.388673	0.279963
12.8497	12.6619	0.388505	0.278163
12.8501	12.6614	0.38775	0.278503
12.8506	12.6609	0.388829	0.27701
12.8511	12.6604	0.386394	0.274046
12.8516	12.66	0.386685	0.271307
12.852	12.6595	0.389051	0.270116
12.8525	12.659	0.38838	0.268674
12.853	12.6586	0.388944	0.269466
12.8534	12.6581	0.386689	0.269016
12.8539	12.6576	0.387374	0.26724
12.8544	12.6571	0.389212	0.266923
12.8549	12.6567	0.388175	0.266876
12.8553	12.6562	0.388988	0.268539
12.8558	12.6557	0.387806	0.26932
12.8563	12.6552	0.388699	0.26866
12.8567	12.6547	0.388492	0.269208
12.8572	12.6543	0.389618	0.272356
12.8577	12.6538	0.391212	0.276826
12.8582	12.6533	0.388377	0.277294
12.8586	12.6529	0.389053	0.277775
12.8591	12.6524	0.388286	0.279831
12.8596	12.6519	0.391704	0.281567
12.8601	12.6515	0.390042	0.287572
12.8605	12.651	0.388817	0.289107
12.861	12.6505	0.389954	0.289886
12.8615	12.65	0.390009	0.291857
12.8619	12.6495	0.390158	0.294465
12.8624	12.6491	0.389707	0.299654
12.8629	12.6486	0.387033	0.300691
12.8634	12.6481	0.388471	0.301906
12.8638	12.6477	0.390135	0.302621
12.8643	12.6472	0.389589	0.305509
12.8648	12.6467	0.388051	0.307582
12.8652	12.6462	0.385989	0.308205
12.8657	12.6457	0.385797	0.306176
12.8662	12.6453	0.387229	0.307933
12.8667	12.6448	0.386061	0.310407
12.8671	12.6443	0.387545	0.314649
12.8676	12.6438	0.38549	0.313689
12.8681	12.6434	0.385464	0.313051
12.8686	12.6429	0.389557	0.31452
12.869	12.6424	0.388874	0.31742
12.8695	12.642	0.390532	0.318317
12.87	12.6415	0.388597	0.316939
12.8704	12.641	0.388236	0.317128
12.8709	12.6406	0.390195	0.316759
12.8714	12.6401	0.389219	0.31753
12.8719	12.6396	0.38959	0.319687
12.8723	12.6392	0.389987	0.317347
12.8728	12.6387	0.388514	0.315238
12.8733	12.6382	0.390184	0.314563
12.8737	12.6378	0.389649	0.314992
12.8742	12.6373	0.389913	0.314734
12.8747	12.6368	0.38718	0.314302
12.8752	12.6363	0.389182	0.312045
12.8756	12.6359	0.38889	0.310111
12.8761	12.6354	0.388767	0.311392
12.8766	12.6349	0.390062	0.313327
12.8771	12.6344	0.388301	0.311009
12.8775	12.634	0.388755	0.308686
12.878	12.6335	0.389135	0.30878
12.8785	12.633	0.389911	0.311283
12.8789	12.6326	0.388835	0.309655
12.8794	12.6321	0.388545	0.310177
12.8799	12.6316	0.38833	0.30884
12.8804	12.6312	0.3898	0.309072
12.8808	12.6307	0.388598	0.310316
12.8813	12.6302	0.390053	0.312919
12.8818	12.6297	0.38748	0.312277
12.8822	12.6293	0.387413	0.309433
12.8827	12.6288	0.389983	0.310358
12.8832	12.6283	0.390061	0.312196
12.8837	12.6279	0.388986	0.312194
12.8841	12.6274	0.38654	0.311894
12.8846	12.6269	0.388448	0.309611
12.8851	12.6264	0.387595	0.308722
12.8856	12.626	0.388404	0.310059
12.886	12.6255	0.388772	0.311545
12.8865	12.625	0.388039	0.308739
12.887	12.6245	0.386643	0.30535
12.8874	12.624	0.388365	0.30561
12.8879	12.6236	0.388526	0.30633
12.8884	12.6231	0.388791	0.305629
12.8889	12.6226	0.386749	0.304806
12.8893	12.6222	0.38738	0.30239
12.8898	12.6217	0.3881	0.301489
12.8903	12.6212	0.388601	0.302354
12.8907	12.6207	0.387892	0.304167
12.8912	12.6203	0.387244	0.302338
12.8917	12.6198	0.385055	0.29936
12.8922	12.6193	0.388856	0.301121
12.8926	12.6189	0.388221	0.302158
12.8931	12.6184	0.388151	0.302358
12.8936	12.6179	0.387372	0.301363
12.8941	12.6174	0.385901	0.299552
12.8945	12.617	0.387941	0.299357
12.895	12.6165	0.386261	0.300361
12.8955	12.616	0.387223	0.302377
12.8959	12.6155	0.38512	0.301158
12.8964	12.6151	0.385219	0.298508
12.8969	12.6146	0.387923	0.298949
12.8974	12.6141	0.386077	0.299133
12.8978	12.6136	0.385758	0.299897
12.8983	12.6132	0.38588	0.297958
12.8988	12.6127	0.386375	0.29669
