# 1304     AichiSR QXAFS
# Start     : 8.9544
# End       : 9.0544
# Dir       : Forward
# Points    : 300
# ScanTime  : 1.01549
# Date      : 13.04.23 22:28
# Ring Cur. : 25.5[mA]
12.7557	12.7558	0.396745	1.20959
12.7562	12.7553	0.397906	1.20636
12.7566	12.7548	0.396319	1.21058
12.7571	12.7543	0.395366	1.21086
12.7576	12.7538	0.395911	1.20722
12.7581	12.7534	0.39621	1.20245
12.7585	12.7529	0.397555	1.20543
12.759	12.7525	0.397086	1.20987
12.7595	12.752	0.395703	1.20822
12.7599	12.7515	0.395324	1.20647
12.7604	12.7511	0.395446	1.20114
12.7609	12.7506	0.395827	1.2017
12.7614	12.7501	0.395798	1.20739
12.7618	12.7496	0.395859	1.20319
12.7623	12.7492	0.394717	1.20069
12.7628	12.7487	0.395565	1.20205
12.7632	12.7483	0.395146	1.20067
12.7637	12.7478	0.395344	1.20555
12.7642	12.7473	0.393014	1.19996
12.7647	12.7468	0.394614	1.20024
12.7651	12.7464	0.394914	1.19706
12.7656	12.7459	0.393276	1.19319
12.7661	12.7454	0.395578	1.20032
12.7666	12.7449	0.394121	1.1979
12.767	12.7444	0.393844	1.19564
12.7675	12.744	0.392437	1.19421
12.768	12.7435	0.398009	1.21003
12.7684	12.743	0.397181	1.20271
12.7689	12.7426	0.39313	1.19722
12.7694	12.7421	0.392519	1.19477
12.7699	12.7416	0.393337	1.19286
12.7703	12.7412	0.395504	1.1945
12.7708	12.7407	0.39478	1.19557
12.7713	12.7402	0.392766	1.19455
12.7717	12.7397	0.392199	1.18579
12.7722	12.7393	0.392866	1.18721
12.7727	12.7388	0.393884	1.19015
12.7732	12.7383	0.395292	1.19023
12.7736	12.7379	0.391148	1.18813
12.7741	12.7374	0.392976	1.18675
12.7746	12.7369	0.391727	1.18215
12.7751	12.7364	0.393564	1.18064
12.7755	12.736	0.394017	1.1864
12.776	12.7355	0.392068	1.18599
12.7765	12.735	0.392661	1.17974
12.7769	12.7345	0.393238	1.17897
12.7774	12.734	0.394677	1.17649
12.7779	12.7336	0.391931	1.18156
12.7784	12.7331	0.391936	1.1759
12.7788	12.7326	0.393203	1.17198
12.7793	12.7322	0.392389	1.16936
12.7798	12.7317	0.392998	1.16469
12.7802	12.7312	0.393694	1.16846
12.7807	12.7307	0.39406	1.16549
12.7812	12.7303	0.39363	1.1603
12.7817	12.7298	0.392851	1.15496
12.7821	12.7293	0.395058	1.15582
12.7826	12.7289	0.393776	1.15152
12.7831	12.7284	0.392031	1.14458
12.7836	12.7279	0.392957	1.13584
12.784	12.7274	0.393895	1.12452
12.7845	12.727	0.392716	1.11296
12.785	12.7265	0.392648	1.09836
12.7854	12.726	0.389465	1.08055
12.7859	12.7255	0.388922	1.04437
12.7864	12.7251	0.388471	1.00548
12.7869	12.7246	0.388053	0.962393
12.7873	12.7241	0.38887	0.91053
12.7878	12.7236	0.388892	0.849774
12.7883	12.7232	0.39283	0.787449
12.7887	12.7227	0.393919	0.731535
12.7892	12.7223	0.393751	0.6831
12.7897	12.7218	0.393329	0.653459
12.7902	12.7213	0.395859	0.631854
12.7906	12.7208	0.396251	0.615712
12.7911	12.7204	0.394024	0.609976
12.7916	12.7199	0.393305	0.608615
12.7921	12.7194	0.395629	0.615101
12.7925	12.719	0.392815	0.619048
12.793	12.7185	0.392717	0.620961
12.7935	12.718	0.393289	0.626588
12.7939	12.7176	0.393889	0.624545
12.7944	12.7171	0.394626	0.62436
12.7949	12.7166	0.393158	0.617042
12.7954	12.7161	0.393499	0.607735
12.7958	12.7157	0.395452	0.595655
12.7963	12.7152	0.394793	0.586872
12.7968	12.7147	0.393534	0.579065
12.7972	12.7142	0.394509	0.565859
12.7977	12.7137	0.394966	0.555734
12.7982	12.7133	0.395655	0.545082
12.7987	12.7128	0.394237	0.535365
12.7991	12.7123	0.395375	0.524113
12.7996	12.7119	0.395158	0.514768
12.8001	12.7114	0.394336	0.497358
12.8006	12.7109	0.395312	0.484902
12.801	12.7105	0.395192	0.471656
12.8015	12.71	0.396415	0.458317
12.802	12.7095	0.393719	0.441831
12.8024	12.7091	0.394067	0.422865
12.8029	12.7086	0.395728	0.406708
12.8034	12.7081	0.396302	0.390672
12.8039	12.7076	0.397045	0.377204
12.8043	12.7072	0.394295	0.360173
12.8048	12.7067	0.394675	0.343862
12.8053	12.7062	0.396117	0.330764
12.8057	12.7057	0.395977	0.320421
12.8062	12.7052	0.395509	0.310308
12.8067	12.7048	0.395806	0.300163
12.8072	12.7043	0.394561	0.290619
12.8076	12.7038	0.395993	0.283289
12.8081	12.7033	0.394929	0.280935
12.8086	12.7029	0.395389	0.28083
12.8091	12.7024	0.394302	0.279532
12.8095	12.7019	0.39376	0.278179
12.81	12.7015	0.397166	0.280364
12.8105	12.701	0.3966	0.284446
12.8109	12.7005	0.396205	0.289936
12.8114	12.7	0.394846	0.292657
12.8119	12.6996	0.394293	0.296147
12.8124	12.6991	0.396075	0.298895
12.8128	12.6987	0.394823	0.304293
12.8133	12.6982	0.39484	0.310178
12.8138	12.6977	0.39572	0.313535
12.8142	12.6972	0.394472	0.314193
12.8147	12.6968	0.396197	0.317929
12.8152	12.6963	0.396225	0.320209
12.8157	12.6958	0.39608	0.322649
12.8161	12.6953	0.394949	0.321479
12.8166	12.6949	0.394322	0.318338
12.8171	12.6944	0.397674	0.315046
12.8176	12.6939	0.395376	0.313799
12.818	12.6934	0.395625	0.310011
12.8185	12.693	0.393806	0.30418
12.819	12.6925	0.395252	0.296068
12.8194	12.692	0.394604	0.289592
12.8199	12.6916	0.3946	0.285913
12.8204	12.6911	0.394906	0.283092
12.8209	12.6906	0.394109	0.27647
12.8213	12.6902	0.394155	0.272156
12.8218	12.6897	0.395987	0.270477
12.8223	12.6892	0.395273	0.270103
12.8227	12.6888	0.394802	0.272286
12.8232	12.6883	0.395683	0.275513
12.8237	12.6878	0.394297	0.275245
12.8242	12.6874	0.394193	0.278123
12.8246	12.6869	0.393924	0.283296
12.8251	12.6864	0.393763	0.289174
12.8256	12.6859	0.392571	0.293202
12.8261	12.6854	0.392525	0.294334
12.8265	12.685	0.39355	0.298593
12.827	12.6845	0.391576	0.301653
12.8275	12.684	0.392905	0.306577
12.8279	12.6835	0.392159	0.308734
12.8284	12.6831	0.392457	0.311796
12.8289	12.6826	0.392704	0.314468
12.8294	12.6821	0.394337	0.318001
12.8298	12.6817	0.393104	0.323081
12.8303	12.6812	0.392924	0.325455
12.8308	12.6807	0.39243	0.327081
12.8312	12.6802	0.395011	0.328459
12.8317	12.6798	0.393291	0.333033
12.8322	12.6793	0.394926	0.337138
12.8327	12.6788	0.39454	0.338188
12.8331	12.6784	0.39338	0.338066
12.8336	12.6779	0.394893	0.337647
12.8341	12.6774	0.39554	0.340043
12.8346	12.6769	0.394108	0.34158
12.835	12.6765	0.392584	0.340833
12.8355	12.676	0.393689	0.338022
12.836	12.6755	0.396058	0.33716
12.8364	12.675	0.393018	0.337493
12.8369	12.6745	0.393312	0.338892
12.8374	12.6741	0.394712	0.335865
12.8379	12.6736	0.39166	0.333775
12.8383	12.6731	0.395287	0.33203
12.8388	12.6726	0.39459	0.333872
12.8393	12.6722	0.39455	0.333947
12.8397	12.6717	0.394077	0.329232
12.8402	12.6713	0.39288	0.325771
12.8407	12.6708	0.394213	0.325346
12.8412	12.6703	0.392251	0.323164
12.8416	12.6698	0.394396	0.321972
12.8421	12.6694	0.393433	0.31965
12.8426	12.6689	0.39205	0.31521
12.8431	12.6685	0.394014	0.312568
12.8435	12.668	0.39401	0.312257
12.844	12.6675	0.39309	0.309481
12.8445	12.667	0.392445	0.306978
12.8449	12.6666	0.391755	0.303072
12.8454	12.6661	0.393792	0.300943
12.8459	12.6656	0.391936	0.298644
12.8464	12.6651	0.392858	0.297735
12.8468	12.6646	0.393991	0.29494
12.8473	12.6642	0.390709	0.290478
12.8478	12.6637	0.391769	0.289169
12.8482	12.6632	0.391849	0.287746
12.8487	12.6628	0.390737	0.285857
12.8492	12.6623	0.391666	0.283639
12.8497	12.6619	0.391176	0.281268
12.8501	12.6614	0.392748	0.278137
12.8506	12.6609	0.3904	0.277722
12.8511	12.6604	0.390375	0.276462
12.8516	12.66	0.392191	0.274534
12.852	12.6595	0.391319	0.270836
12.8525	12.659	0.392362	0.269626
12.853	12.6586	0.390716	0.270919
12.8534	12.6581	0.390199	0.270539
12.8539	12.6576	0.390346	0.269893
12.8544	12.6571	0.390107	0.267575
12.8549	12.6567	0.391607	0.267472
12.8553	12.6562	0.3893	0.267581
12.8558	12.6557	0.389255	0.270895
12.8563	12.6552	0.389814	0.270903
12.8567	12.6547	0.390318	0.270327
12.8572	12.6543	0.390793	0.272943
12.8577	12.6538	0.390078	0.275538
12.8582	12.6533	0.390888	0.278623
12.8586	12.6529	0.392452	0.27973
12.8591	12.6524	0.391983	0.28056
12.8596	12.6519	0.393281	0.283956
12.8601	12.6515	0.389299	0.287674
12.8605	12.651	0.388569	0.290152
12.861	12.6505	0.390465	0.290527
12.8615	12.65	0.392164	0.291586
12.8619	12.6495	0.391387	0.295197
12.8624	12.6491	0.389413	0.298539
12.8629	12.6486	0.388097	0.300847
12.8634	12.6481	0.388404	0.30174
12.8638	12.6477	0.387471	0.302982
12.8643	12.6472	0.38949	0.305286
12.8648	12.6467	0.387445	0.306922
12.8652	12.6462	0.38614	0.308655
12.8657	12.6458	0.385008	0.307363
12.8662	12.6453	0.38431	0.308185
12.8667	12.6448	0.385669	0.310718
12.8671	12.6443	0.386236	0.312078
12.8676	12.6438	0.386177	0.313022
12.8681	12.6434	0.386065	0.313974
12.8686	12.6429	0.386604	0.315043
12.869	12.6424	0.390587	0.315294
12.8695	12.642	0.387698	0.316257
12.87	12.6415	0.387136	0.31729
12.8704	12.641	0.388298	0.316187
12.8709	12.6406	0.38828	0.315345
12.8714	12.6401	0.387068	0.314697
12.8719	12.6396	0.389194	0.317355
12.8723	12.6392	0.388219	0.317702
12.8728	12.6387	0.386176	0.314763
12.8733	12.6382	0.387538	0.313766
12.8737	12.6378	0.390366	0.314485
12.8742	12.6373	0.387394	0.313388
12.8747	12.6368	0.385964	0.313428
12.8752	12.6363	0.387052	0.311377
12.8756	12.6359	0.385708	0.30905
12.8761	12.6354	0.38734	0.30944
12.8766	12.6349	0.387784	0.309955
12.8771	12.6344	0.385978	0.309407
12.8775	12.634	0.387141	0.307699
12.878	12.6335	0.38611	0.30703
12.8785	12.633	0.389079	0.307335
12.8789	12.6326	0.386214	0.308549
12.8794	12.6321	0.385867	0.307888
12.8799	12.6316	0.386609	0.307745
12.8804	12.6312	0.386252	0.305592
12.8808	12.6307	0.387311	0.308082
12.8813	12.6302	0.385883	0.308053
12.8818	12.6297	0.384866	0.309035
12.8822	12.6293	0.384117	0.308174
12.8827	12.6288	0.384614	0.307678
12.8832	12.6283	0.386739	0.307652
12.8837	12.6279	0.385455	0.3085
12.8841	12.6274	0.385727	0.308614
12.8846	12.6269	0.384199	0.307688
12.8851	12.6264	0.384694	0.306628
12.8856	12.626	0.385368	0.305774
12.886	12.6255	0.383912	0.307248
12.8865	12.625	0.3846	0.307657
12.887	12.6245	0.383901	0.304047
12.8874	12.624	0.384039	0.302485
12.8879	12.6236	0.384274	0.30272
12.8884	12.6231	0.38433	0.303173
12.8889	12.6226	0.383911	0.302331
12.8893	12.6222	0.384297	0.301132
12.8898	12.6217	0.383632	0.297978
12.8903	12.6212	0.38463	0.298195
12.8907	12.6207	0.383874	0.300636
12.8912	12.6203	0.382768	0.299806
12.8917	12.6198	0.381278	0.296822
12.8922	12.6193	0.383099	0.296766
12.8926	12.6189	0.383989	0.297472
12.8931	12.6184	0.383063	0.297874
12.8936	12.6179	0.382004	0.297729
12.8941	12.6174	0.382866	0.297968
12.8945	12.617	0.383633	0.295207
12.895	12.6165	0.381972	0.296223
12.8955	12.616	0.382928	0.29897
12.8959	12.6155	0.381668	0.296544
12.8964	12.6151	0.379923	0.295112
12.8969	12.6146	0.381633	0.294873
12.8974	12.6141	0.383384	0.295713
12.8978	12.6136	0.380707	0.294849
12.8983	12.6132	0.380334	0.295004
12.8988	12.6127	0.380649	0.293678
