# 1304     AichiSR QXAFS
# Start     : 8.9544
# End       : 9.0544
# Dir       : Forward
# Points    : 300
# ScanTime  : 1.01549
# Date      : 13.04.23 22:27
# Ring Cur. : 25.4[mA]
12.7557	12.7557	0.400795	1.22906
12.7562	12.7553	0.402335	1.22479
12.7566	12.7548	0.403976	1.22205
12.7571	12.7543	0.402088	1.22429
12.7576	12.7538	0.403107	1.22852
12.7581	12.7534	0.401931	1.22408
12.7585	12.7529	0.401349	1.22502
12.759	12.7524	0.401831	1.22385
12.7595	12.752	0.402067	1.22559
12.7599	12.7515	0.403139	1.22734
12.7604	12.751	0.402597	1.22502
12.7609	12.7506	0.400732	1.22166
12.7614	12.7501	0.40219	1.22197
12.7618	12.7496	0.40209	1.22418
12.7623	12.7492	0.402697	1.22639
12.7628	12.7487	0.402196	1.22405
12.7632	12.7482	0.40243	1.2232
12.7637	12.7478	0.401734	1.22314
12.7642	12.7473	0.401788	1.21973
12.7647	12.7468	0.402468	1.22499
12.7651	12.7463	0.399006	1.22347
12.7656	12.7459	0.39962	1.21676
12.7661	12.7454	0.402495	1.21794
12.7666	12.7449	0.40126	1.2195
12.767	12.7444	0.401558	1.22083
12.7675	12.744	0.400374	1.22009
12.768	12.7435	0.400641	1.2189
12.7684	12.743	0.402326	1.21822
12.7689	12.7426	0.401326	1.21656
12.7694	12.7421	0.400597	1.21763
12.7699	12.7416	0.401031	1.21609
12.7703	12.7412	0.400651	1.21047
12.7708	12.7407	0.400563	1.21073
12.7713	12.7402	0.400746	1.21057
12.7717	12.7397	0.400216	1.21282
12.7722	12.7393	0.398701	1.21244
12.7727	12.7388	0.398637	1.20904
12.7732	12.7383	0.399567	1.21021
12.7736	12.7379	0.400219	1.20834
12.7741	12.7374	0.400319	1.20925
12.7746	12.7369	0.399859	1.21066
12.7751	12.7364	0.398689	1.20363
12.7755	12.7359	0.400059	1.20249
12.776	12.7355	0.401049	1.20418
12.7765	12.735	0.399537	1.20255
12.7769	12.7345	0.398198	1.19873
12.7774	12.734	0.39845	1.19478
12.7779	12.7335	0.39947	1.19436
12.7784	12.7331	0.399617	1.19326
12.7788	12.7326	0.399318	1.19503
12.7793	12.7321	0.398852	1.1929
12.7798	12.7317	0.397913	1.1821
12.7802	12.7312	0.401129	1.18349
12.7807	12.7307	0.398565	1.18317
12.7812	12.7302	0.398105	1.17926
12.7817	12.7298	0.397566	1.17204
12.7821	12.7293	0.397205	1.16618
12.7826	12.7288	0.398433	1.16286
12.7831	12.7284	0.396865	1.15455
12.7836	12.7279	0.397597	1.1486
12.784	12.7274	0.396373	1.14006
12.7845	12.727	0.395086	1.12294
12.785	12.7265	0.395621	1.1078
12.7854	12.726	0.396445	1.0892
12.7859	12.7255	0.39323	1.0568
12.7864	12.725	0.390991	1.0189
12.7869	12.7246	0.391538	0.969579
12.7873	12.7241	0.394606	0.917305
12.7878	12.7236	0.391346	0.854342
12.7883	12.7232	0.394299	0.798163
12.7887	12.7227	0.396059	0.740821
12.7892	12.7222	0.394965	0.687709
12.7897	12.7218	0.396893	0.6543
12.7902	12.7213	0.397136	0.636348
12.7906	12.7208	0.397275	0.622803
12.7911	12.7203	0.397239	0.614371
12.7916	12.7199	0.396571	0.611855
12.7921	12.7194	0.397906	0.6153
12.7925	12.719	0.396279	0.621899
12.793	12.7185	0.396306	0.626408
12.7935	12.718	0.395379	0.629358
12.7939	12.7176	0.395387	0.628115
12.7944	12.7171	0.396481	0.624716
12.7949	12.7166	0.396999	0.622191
12.7954	12.7161	0.395816	0.612491
12.7958	12.7157	0.395365	0.601072
12.7963	12.7152	0.394938	0.585508
12.7968	12.7147	0.396276	0.578015
12.7972	12.7142	0.396056	0.567007
12.7977	12.7137	0.395817	0.557056
12.7982	12.7133	0.394683	0.547193
12.7987	12.7128	0.394271	0.535079
12.7991	12.7123	0.396041	0.52454
12.7996	12.7119	0.395924	0.514606
12.8001	12.7114	0.393774	0.501523
12.8006	12.7109	0.394827	0.486366
12.801	12.7104	0.394797	0.470989
12.8015	12.71	0.39658	0.45543
12.802	12.7095	0.395468	0.440702
12.8024	12.709	0.395231	0.425866
12.8029	12.7086	0.395288	0.409694
12.8034	12.7081	0.39427	0.388692
12.8039	12.7076	0.395492	0.373259
12.8043	12.7072	0.396547	0.35933
12.8048	12.7067	0.394779	0.346565
12.8053	12.7062	0.393974	0.330864
12.8057	12.7057	0.395058	0.318553
12.8062	12.7052	0.396472	0.307606
12.8067	12.7047	0.394786	0.299096
12.8072	12.7043	0.39479	0.291807
12.8076	12.7038	0.395772	0.285202
12.8081	12.7033	0.394206	0.278587
12.8086	12.7029	0.39426	0.277148
12.8091	12.7024	0.394824	0.277672
12.8095	12.7019	0.394201	0.279142
12.81	12.7015	0.393243	0.279753
12.8105	12.701	0.391116	0.280657
12.8109	12.7005	0.394339	0.284766
12.8114	12.7	0.393384	0.291123
12.8119	12.6996	0.393207	0.297088
12.8124	12.6991	0.393336	0.301424
12.8128	12.6986	0.3921	0.302144
12.8133	12.6982	0.394167	0.308057
12.8138	12.6977	0.394296	0.3127
12.8142	12.6972	0.392784	0.315625
12.8147	12.6968	0.392296	0.317272
12.8152	12.6963	0.392891	0.317502
12.8157	12.6958	0.394118	0.318143
12.8161	12.6953	0.390827	0.31847
12.8166	12.6948	0.393135	0.318158
12.8171	12.6944	0.39279	0.31482
12.8176	12.6939	0.391726	0.309665
12.818	12.6934	0.392695	0.305003
12.8185	12.693	0.391295	0.301237
12.819	12.6925	0.391465	0.297079
12.8194	12.692	0.391967	0.289445
12.8199	12.6916	0.390848	0.283995
12.8204	12.6911	0.393018	0.278938
12.8209	12.6906	0.389856	0.27598
12.8213	12.6901	0.390593	0.272951
12.8218	12.6897	0.391314	0.26945
12.8223	12.6892	0.390143	0.26653
12.8227	12.6888	0.391831	0.267612
12.8232	12.6883	0.39105	0.271326
12.8237	12.6878	0.390039	0.273442
12.8242	12.6873	0.39053	0.276335
12.8246	12.6869	0.389503	0.279688
12.8251	12.6864	0.390468	0.283555
12.8256	12.6859	0.39022	0.28894
12.8261	12.6854	0.387679	0.293013
12.8265	12.6849	0.387363	0.295426
12.827	12.6845	0.387222	0.297949
12.8275	12.684	0.388695	0.301239
12.8279	12.6835	0.386918	0.306067
12.8284	12.6831	0.387621	0.309776
12.8289	12.6826	0.386708	0.310887
12.8294	12.6821	0.387348	0.314145
12.8298	12.6817	0.389606	0.316685
12.8303	12.6812	0.387834	0.320492
12.8308	12.6807	0.38961	0.325923
12.8312	12.6802	0.388677	0.325916
12.8317	12.6797	0.390135	0.327551
12.8322	12.6793	0.38958	0.331333
12.8327	12.6788	0.389451	0.334543
12.8331	12.6784	0.387392	0.333249
12.8336	12.6779	0.387042	0.332924
12.8341	12.6774	0.388274	0.335255
12.8346	12.6769	0.389443	0.334248
12.835	12.6764	0.387288	0.335118
12.8355	12.676	0.387372	0.333961
12.836	12.6755	0.388492	0.334506
12.8364	12.675	0.386465	0.331536
12.8369	12.6745	0.388764	0.331888
12.8374	12.674	0.38844	0.332884
12.8379	12.6736	0.387202	0.331218
12.8383	12.6731	0.387245	0.328959
12.8388	12.6726	0.387134	0.327551
12.8393	12.6722	0.392004	0.329284
12.8397	12.6717	0.391492	0.326373
12.8402	12.6712	0.388321	0.324489
12.8407	12.6708	0.388491	0.321703
12.8412	12.6703	0.388661	0.317865
12.8416	12.6698	0.387058	0.316343
12.8421	12.6694	0.388834	0.316741
12.8426	12.6689	0.386381	0.312771
12.8431	12.6684	0.387357	0.308436
12.8435	12.668	0.387967	0.307024
12.844	12.6675	0.388356	0.304055
12.8445	12.667	0.387257	0.304109
12.8449	12.6665	0.387539	0.300998
12.8454	12.6661	0.387254	0.296878
12.8459	12.6656	0.387063	0.292633
12.8464	12.6651	0.387072	0.292964
12.8468	12.6646	0.389139	0.29222
12.8473	12.6642	0.385721	0.28863
12.8478	12.6637	0.385511	0.285641
12.8482	12.6632	0.388109	0.282913
12.8487	12.6628	0.387453	0.281768
12.8492	12.6623	0.388229	0.281408
12.8497	12.6618	0.38728	0.279492
12.8501	12.6614	0.386328	0.274735
12.8506	12.6609	0.388049	0.273517
12.8511	12.6604	0.384755	0.27206
12.8516	12.6599	0.388154	0.273067
12.852	12.6595	0.385873	0.270222
12.8525	12.659	0.387224	0.26775
12.853	12.6586	0.386446	0.266586
12.8534	12.6581	0.387648	0.266194
12.8539	12.6576	0.386332	0.267973
12.8544	12.6571	0.385203	0.26769
12.8549	12.6566	0.387444	0.265682
12.8553	12.6562	0.387385	0.266203
12.8558	12.6557	0.388653	0.266858
12.8563	12.6552	0.389496	0.2708
12.8567	12.6547	0.388238	0.271144
12.8572	12.6543	0.386602	0.27238
12.8577	12.6538	0.390305	0.272363
12.8582	12.6533	0.387809	0.275384
12.8586	12.6528	0.388704	0.278873
12.8591	12.6524	0.388938	0.281893
12.8596	12.6519	0.391461	0.282243
12.8601	12.6514	0.389256	0.284277
12.8605	12.651	0.388654	0.287797
12.861	12.6505	0.390613	0.290614
12.8615	12.65	0.38849	0.292589
12.8619	12.6495	0.388773	0.294598
12.8624	12.6491	0.389836	0.296072
12.8629	12.6486	0.388672	0.299871
12.8634	12.6481	0.388479	0.302999
12.8638	12.6477	0.387367	0.304511
12.8643	12.6472	0.388593	0.304996
12.8648	12.6467	0.387015	0.304396
12.8652	12.6462	0.38657	0.306556
12.8657	12.6457	0.385757	0.309153
12.8662	12.6453	0.385694	0.30896
12.8667	12.6448	0.384791	0.309232
12.8671	12.6443	0.387818	0.310053
12.8676	12.6438	0.387718	0.312535
12.8681	12.6434	0.3878	0.315396
12.8686	12.6429	0.387527	0.316581
12.869	12.6424	0.38911	0.315294
12.8695	12.642	0.388924	0.314837
12.87	12.6415	0.390568	0.31793
12.8704	12.641	0.389551	0.318962
12.8709	12.6406	0.388605	0.318135
12.8714	12.6401	0.388175	0.315589
12.8719	12.6396	0.389355	0.315237
12.8723	12.6392	0.390834	0.316692
12.8728	12.6387	0.389316	0.316309
12.8733	12.6382	0.388419	0.31628
12.8737	12.6378	0.388913	0.315247
12.8742	12.6373	0.391783	0.314121
12.8747	12.6368	0.390707	0.312787
12.8752	12.6363	0.390567	0.312844
12.8756	12.6359	0.389267	0.313211
12.8761	12.6354	0.388365	0.312107
12.8766	12.6349	0.390648	0.310516
12.8771	12.6344	0.389712	0.310621
12.8775	12.634	0.388941	0.310934
12.878	12.6335	0.388378	0.309929
12.8785	12.633	0.388955	0.309591
12.8789	12.6326	0.389464	0.308429
12.8794	12.6321	0.389373	0.309098
12.8799	12.6316	0.389611	0.311462
12.8804	12.6311	0.388419	0.311201
12.8808	12.6307	0.388017	0.309978
12.8813	12.6302	0.390291	0.309227
12.8818	12.6297	0.388376	0.312141
12.8822	12.6293	0.389423	0.313056
12.8827	12.6288	0.388202	0.311821
12.8832	12.6283	0.388274	0.310633
12.8837	12.6279	0.389048	0.310761
12.8841	12.6274	0.388125	0.310324
12.8846	12.6269	0.388449	0.31171
12.8851	12.6264	0.388445	0.310316
12.8856	12.6259	0.388183	0.30942
12.886	12.6255	0.390099	0.30815
12.8865	12.625	0.390805	0.308846
12.887	12.6245	0.389508	0.308084
12.8874	12.624	0.387421	0.307706
12.8879	12.6235	0.387633	0.30526
12.8884	12.6231	0.390224	0.304753
12.8889	12.6226	0.388415	0.306392
12.8893	12.6221	0.388646	0.306017
12.8898	12.6217	0.388443	0.304291
12.8903	12.6212	0.389421	0.30304
12.8907	12.6207	0.389737	0.302817
12.8912	12.6202	0.389777	0.302739
12.8917	12.6198	0.389193	0.303121
12.8922	12.6193	0.388054	0.300605
12.8926	12.6188	0.386694	0.30015
12.8931	12.6184	0.389692	0.299946
12.8936	12.6179	0.3887	0.301141
12.8941	12.6174	0.388226	0.303567
12.8945	12.6169	0.389424	0.302246
12.895	12.6165	0.387031	0.300433
12.8955	12.616	0.391325	0.300012
12.8959	12.6155	0.389384	0.302224
12.8964	12.615	0.388425	0.302539
12.8969	12.6146	0.387289	0.299985
12.8974	12.6141	0.387777	0.299519
12.8978	12.6136	0.387207	0.298761
12.8983	12.6132	0.386424	0.298344
12.8988	12.6127	0.388759	0.299431
