# 1304     AichiSR QXAFS
# Start     : 8.9544
# End       : 9.0544
# Dir       : Forward
# Points    : 300
# ScanTime  : 1.01549
# Date      : 13.04.23 22:25
# Ring Cur. : 25.4[mA]
12.7557	12.7557	0.400664	1.22255
12.7562	12.7553	0.39994	1.22502
12.7566	12.7548	0.400271	1.22181
12.7571	12.7543	0.400569	1.22001
12.7576	12.7538	0.400846	1.22145
12.7581	12.7534	0.400467	1.22114
12.7585	12.7529	0.400797	1.22456
12.759	12.7524	0.400919	1.22077
12.7595	12.752	0.400228	1.22067
12.7599	12.7515	0.400925	1.21775
12.7604	12.751	0.401747	1.22321
12.7609	12.7505	0.400172	1.22073
12.7614	12.7501	0.401351	1.21831
12.7618	12.7496	0.400154	1.21634
12.7623	12.7492	0.40097	1.21784
12.7628	12.7487	0.400449	1.22088
12.7632	12.7482	0.400097	1.22328
12.7637	12.7478	0.400078	1.22062
12.7642	12.7473	0.401538	1.21597
12.7647	12.7468	0.400952	1.21904
12.7651	12.7463	0.400116	1.22111
12.7656	12.7459	0.400196	1.21906
12.7661	12.7454	0.4003	1.21989
12.7666	12.7449	0.40179	1.21758
12.767	12.7444	0.402739	1.21784
12.7675	12.7439	0.401403	1.2186
12.768	12.7435	0.400145	1.2197
12.7684	12.743	0.400553	1.21814
12.7689	12.7425	0.399283	1.21659
12.7694	12.7421	0.402099	1.21769
12.7699	12.7416	0.401789	1.21937
12.7703	12.7411	0.400271	1.21693
12.7708	12.7407	0.400317	1.21294
12.7713	12.7402	0.399961	1.21249
12.7717	12.7397	0.399421	1.21184
12.7722	12.7393	0.400741	1.21514
12.7727	12.7388	0.400838	1.21495
12.7732	12.7383	0.402184	1.21249
12.7736	12.7379	0.400769	1.21109
12.7741	12.7374	0.402051	1.2109
12.7746	12.7369	0.401088	1.21007
12.7751	12.7364	0.398211	1.20963
12.7755	12.7359	0.399661	1.20633
12.776	12.7355	0.402804	1.20635
12.7765	12.735	0.401036	1.20495
12.7769	12.7345	0.401694	1.2049
12.7774	12.734	0.400273	1.20447
12.7779	12.7335	0.399461	1.20248
12.7784	12.7331	0.402063	1.19712
12.7788	12.7326	0.401318	1.19776
12.7793	12.7321	0.401478	1.19466
12.7798	12.7317	0.398309	1.19169
12.7802	12.7312	0.399472	1.18736
12.7807	12.7307	0.400519	1.18665
12.7812	12.7302	0.399734	1.18522
12.7817	12.7298	0.401142	1.18128
12.7821	12.7293	0.398905	1.17635
12.7826	12.7288	0.399059	1.16882
12.7831	12.7284	0.401395	1.16055
12.7836	12.7279	0.399736	1.15315
12.784	12.7274	0.399926	1.14733
12.7845	12.7269	0.397596	1.13172
12.785	12.7265	0.396418	1.11044
12.7854	12.726	0.398229	1.09133
12.7859	12.7255	0.397885	1.06339
12.7864	12.725	0.394988	1.02745
12.7869	12.7246	0.391705	0.980263
12.7873	12.7241	0.394273	0.922306
12.7878	12.7236	0.395078	0.861795
12.7883	12.7231	0.397467	0.802667
12.7887	12.7227	0.397954	0.74566
12.7892	12.7222	0.396894	0.696813
12.7897	12.7218	0.397758	0.661258
12.7902	12.7213	0.400411	0.637549
12.7906	12.7208	0.398984	0.624067
12.7911	12.7203	0.398424	0.619096
12.7916	12.7199	0.398779	0.619162
12.7921	12.7194	0.399056	0.620001
12.7925	12.719	0.398949	0.625268
12.793	12.7185	0.397689	0.629563
12.7935	12.718	0.399921	0.636628
12.7939	12.7175	0.397777	0.634608
12.7944	12.7171	0.398441	0.62896
12.7949	12.7166	0.398453	0.624803
12.7954	12.7161	0.399449	0.615242
12.7958	12.7156	0.39859	0.605185
12.7963	12.7152	0.396973	0.594862
12.7968	12.7147	0.39721	0.580412
12.7972	12.7142	0.398914	0.57069
12.7977	12.7137	0.398815	0.561808
12.7982	12.7133	0.398967	0.551619
12.7987	12.7128	0.398393	0.541958
12.7991	12.7123	0.398514	0.529034
12.7996	12.7119	0.399277	0.517588
12.8001	12.7114	0.399325	0.503723
12.8006	12.7109	0.398258	0.491847
12.801	12.7104	0.39787	0.474762
12.8015	12.71	0.396353	0.459358
12.802	12.7095	0.398772	0.442769
12.8024	12.709	0.397524	0.428847
12.8029	12.7086	0.399418	0.412317
12.8034	12.7081	0.396232	0.393802
12.8039	12.7076	0.398122	0.375352
12.8043	12.7071	0.39781	0.362246
12.8048	12.7067	0.399091	0.347168
12.8053	12.7062	0.397414	0.334531
12.8057	12.7057	0.396873	0.321085
12.8062	12.7052	0.396551	0.308959
12.8067	12.7047	0.397081	0.299904
12.8072	12.7043	0.398338	0.292547
12.8076	12.7038	0.399473	0.288531
12.8081	12.7033	0.396636	0.283237
12.8086	12.7028	0.395432	0.278655
12.8091	12.7024	0.398394	0.278677
12.8095	12.7019	0.396823	0.280145
12.81	12.7014	0.397016	0.283023
12.8105	12.701	0.396523	0.28532
12.8109	12.7005	0.395389	0.28711
12.8114	12.7	0.396593	0.292521
12.8119	12.6995	0.396127	0.298347
12.8124	12.6991	0.396526	0.303602
12.8128	12.6986	0.396053	0.307001
12.8133	12.6982	0.395673	0.309209
12.8138	12.6977	0.39929	0.314283
12.8142	12.6972	0.395635	0.317561
12.8147	12.6967	0.396802	0.31916
12.8152	12.6963	0.396169	0.321253
12.8157	12.6958	0.394919	0.319022
12.8161	12.6953	0.395689	0.319707
12.8166	12.6948	0.396083	0.319482
12.8171	12.6944	0.39517	0.318312
12.8176	12.6939	0.393874	0.313585
12.818	12.6934	0.394377	0.307681
12.8185	12.6929	0.397103	0.303039
12.819	12.6925	0.395362	0.29827
12.8194	12.692	0.394249	0.293136
12.8199	12.6916	0.394651	0.286813
12.8204	12.6911	0.394879	0.280181
12.8209	12.6906	0.396354	0.276876
12.8213	12.6901	0.395089	0.274531
12.8218	12.6897	0.394828	0.27385
12.8223	12.6892	0.394728	0.271679
12.8227	12.6887	0.395292	0.270794
12.8232	12.6883	0.39547	0.272622
12.8237	12.6878	0.393394	0.276237
12.8242	12.6873	0.39315	0.279564
12.8246	12.6869	0.393271	0.282678
12.8251	12.6864	0.391803	0.285514
12.8256	12.6859	0.394067	0.290696
12.8261	12.6854	0.394495	0.294868
12.8265	12.6849	0.392042	0.298867
12.827	12.6844	0.391492	0.301747
12.8275	12.684	0.389922	0.30422
12.8279	12.6835	0.393659	0.307445
12.8284	12.683	0.39117	0.311741
12.8289	12.6826	0.392289	0.315875
12.8294	12.6821	0.392469	0.318628
12.8298	12.6816	0.391857	0.320491
12.8303	12.6812	0.394427	0.323089
12.8308	12.6807	0.393662	0.327285
12.8312	12.6802	0.392659	0.330859
12.8317	12.6797	0.39255	0.332666
12.8322	12.6793	0.392773	0.333722
12.8327	12.6788	0.394123	0.335102
12.8331	12.6783	0.393272	0.339069
12.8336	12.6779	0.392369	0.33976
12.8341	12.6774	0.393288	0.339157
12.8346	12.6769	0.393281	0.337094
12.835	12.6764	0.39398	0.337392
12.8355	12.676	0.394389	0.339847
12.836	12.6755	0.393399	0.339717
12.8364	12.675	0.39197	0.33685
12.8369	12.6745	0.391951	0.33577
12.8374	12.674	0.3953	0.335205
12.8379	12.6736	0.39436	0.334198
12.8383	12.6731	0.391607	0.333954
12.8388	12.6726	0.391339	0.331928
12.8393	12.6722	0.392096	0.328321
12.8397	12.6717	0.39278	0.327827
12.8402	12.6712	0.39374	0.328688
12.8407	12.6707	0.39205	0.325592
12.8412	12.6703	0.391681	0.323295
12.8416	12.6698	0.392455	0.319327
12.8421	12.6694	0.393095	0.318618
12.8426	12.6689	0.393677	0.315797
12.8431	12.6684	0.391231	0.314885
12.8435	12.668	0.391976	0.31061
12.844	12.6675	0.391233	0.307428
12.8445	12.667	0.390827	0.30433
12.8449	12.6665	0.391738	0.30387
12.8454	12.6661	0.390852	0.301056
12.8459	12.6656	0.391066	0.296713
12.8464	12.6651	0.390183	0.294929
12.8468	12.6646	0.39194	0.293689
12.8473	12.6641	0.391585	0.292572
12.8478	12.6637	0.389155	0.291228
12.8482	12.6632	0.39167	0.285756
12.8487	12.6627	0.389863	0.283857
12.8492	12.6623	0.390699	0.282033
12.8497	12.6618	0.391932	0.280803
12.8501	12.6614	0.389591	0.27884
12.8506	12.6609	0.390401	0.276556
12.8511	12.6604	0.388431	0.274121
12.8516	12.6599	0.391342	0.273233
12.852	12.6595	0.39025	0.272229
12.8525	12.659	0.387486	0.271009
12.853	12.6585	0.388534	0.268558
12.8534	12.6581	0.387559	0.266363
12.8539	12.6576	0.388207	0.267445
12.8544	12.6571	0.389118	0.268029
12.8549	12.6566	0.388216	0.268613
12.8553	12.6562	0.387157	0.267745
12.8558	12.6557	0.388227	0.267542
12.8563	12.6552	0.389501	0.269603
12.8567	12.6547	0.38996	0.270495
12.8572	12.6542	0.386252	0.272675
12.8577	12.6538	0.38672	0.27368
12.8582	12.6533	0.388758	0.275713
12.8586	12.6528	0.388879	0.278144
12.8591	12.6524	0.388821	0.281196
12.8596	12.6519	0.387662	0.282948
12.8601	12.6514	0.385911	0.284296
12.8605	12.6509	0.387844	0.285513
12.861	12.6505	0.389495	0.288651
12.8615	12.65	0.388228	0.292454
12.8619	12.6495	0.387096	0.294522
12.8624	12.6491	0.387756	0.295561
12.8629	12.6486	0.386771	0.29682
12.8634	12.6481	0.388216	0.299473
12.8638	12.6476	0.387756	0.302638
12.8643	12.6472	0.386025	0.302637
12.8648	12.6467	0.384753	0.303044
12.8652	12.6462	0.383734	0.303915
12.8657	12.6457	0.382743	0.30482
12.8662	12.6452	0.38338	0.30738
12.8667	12.6448	0.382186	0.308832
12.8671	12.6443	0.382634	0.309196
12.8676	12.6438	0.384925	0.30988
12.8681	12.6433	0.386843	0.314255
12.8686	12.6429	0.38738	0.316085
12.869	12.6424	0.384497	0.31396
12.8695	12.642	0.385477	0.3128
12.87	12.6415	0.385733	0.312829
12.8704	12.641	0.387478	0.315137
12.8709	12.6405	0.385576	0.315145
12.8714	12.6401	0.384083	0.314561
12.8719	12.6396	0.386221	0.313289
12.8723	12.6391	0.385087	0.311955
12.8728	12.6387	0.3842	0.310773
12.8733	12.6382	0.385546	0.312809
12.8737	12.6378	0.38457	0.31377
12.8742	12.6373	0.384818	0.309778
12.8747	12.6368	0.384612	0.307175
12.8752	12.6363	0.384468	0.310136
12.8756	12.6358	0.384219	0.309464
12.8761	12.6354	0.382658	0.308659
12.8766	12.6349	0.384048	0.306842
12.8771	12.6344	0.384245	0.3057
12.8775	12.6339	0.384897	0.3063
12.878	12.6335	0.385566	0.307641
12.8785	12.633	0.384133	0.307205
12.8789	12.6325	0.384833	0.304891
12.8794	12.6321	0.3853	0.30657
12.8799	12.6316	0.384928	0.307269
12.8804	12.6311	0.386168	0.307344
12.8808	12.6307	0.384103	0.309546
12.8813	12.6302	0.384584	0.306797
12.8818	12.6297	0.385493	0.307641
12.8822	12.6292	0.38358	0.307808
12.8827	12.6288	0.385392	0.308375
12.8832	12.6283	0.385065	0.308487
12.8837	12.6278	0.385548	0.306656
12.8841	12.6274	0.386153	0.307181
12.8846	12.6269	0.385217	0.307804
12.8851	12.6264	0.38526	0.308677
12.8856	12.6259	0.386809	0.308564
12.886	12.6254	0.385766	0.305372
12.8865	12.625	0.38812	0.305869
12.887	12.6245	0.386951	0.307112
12.8874	12.624	0.386955	0.304988
12.8879	12.6235	0.386772	0.30396
12.8884	12.6231	0.384829	0.302525
12.8889	12.6226	0.388303	0.302819
12.8893	12.6221	0.387318	0.302145
12.8898	12.6217	0.386177	0.30333
12.8903	12.6212	0.38555	0.302794
12.8907	12.6207	0.387201	0.300864
12.8912	12.6202	0.38884	0.299427
12.8917	12.6198	0.386035	0.299956
12.8922	12.6193	0.386351	0.301818
12.8926	12.6188	0.386568	0.300862
12.8931	12.6184	0.385372	0.298781
12.8936	12.6179	0.387095	0.29875
12.8941	12.6174	0.385746	0.300865
12.8945	12.6169	0.384967	0.30101
12.895	12.6165	0.386853	0.301321
12.8955	12.616	0.385045	0.298261
12.8959	12.6155	0.38773	0.299223
12.8964	12.615	0.386566	0.300172
12.8969	12.6145	0.386554	0.301136
12.8974	12.6141	0.384074	0.298668
12.8978	12.6136	0.385412	0.296808
12.8983	12.6131	0.388882	0.297388
12.8988	12.6127	0.3866	0.299647
