# 1304     AichiSR QXAFS
# Start     : 8.9544
# End       : 9.0544
# Dir       : Backward
# Points    : 300
# ScanTime  : 1.01549
# Date      : 13.04.23 22:26
# Ring Cur. : 25.4[mA]
12.7557	12.6118	0.301926	0.231768
12.7562	12.6122	0.299642	0.230493
12.7566	12.6127	0.302421	0.231532
12.7571	12.6131	0.302808	0.231715
12.7576	12.6136	0.301612	0.232487
12.7581	12.6141	0.299819	0.235016
12.7585	12.6146	0.301333	0.234826
12.759	12.615	0.301867	0.233883
12.7595	12.6155	0.303898	0.235131
12.7599	12.616	0.303161	0.237374
12.7604	12.6165	0.302206	0.237679
12.7609	12.6169	0.302834	0.236033
12.7614	12.6174	0.303879	0.23495
12.7618	12.6179	0.30515	0.235961
12.7623	12.6184	0.303952	0.236779
12.7628	12.6188	0.302307	0.235931
12.7632	12.6193	0.303916	0.236759
12.7637	12.6198	0.303636	0.236118
12.7642	12.6202	0.303357	0.236458
12.7647	12.6207	0.303794	0.237559
12.7651	12.6212	0.302057	0.237743
12.7656	12.6217	0.300944	0.236033
12.7661	12.6221	0.304315	0.235525
12.7666	12.6226	0.301675	0.236715
12.767	12.6231	0.303036	0.23982
12.7675	12.6235	0.30258	0.239558
12.768	12.624	0.306024	0.24047
12.7684	12.6245	0.305275	0.23997
12.7689	12.625	0.303586	0.239919
12.7694	12.6255	0.306261	0.243968
12.7699	12.6259	0.303558	0.243434
12.7703	12.6264	0.30332	0.241747
12.7708	12.6269	0.304715	0.242444
12.7713	12.6274	0.305622	0.243619
12.7717	12.6279	0.30253	0.243328
12.7722	12.6283	0.302675	0.243573
12.7727	12.6288	0.304107	0.243825
12.7732	12.6293	0.304202	0.243511
12.7736	12.6297	0.30494	0.244015
12.7741	12.6302	0.305895	0.245431
12.7746	12.6307	0.303176	0.244521
12.7751	12.6311	0.303997	0.243544
12.7755	12.6316	0.305915	0.243968
12.776	12.6321	0.305606	0.244351
12.7765	12.6325	0.305282	0.245292
12.7769	12.633	0.305622	0.245318
12.7774	12.6335	0.306333	0.242606
12.7779	12.6339	0.306828	0.242627
12.7784	12.6344	0.306255	0.243276
12.7788	12.6349	0.305911	0.244493
12.7793	12.6354	0.304181	0.244927
12.7798	12.6358	0.30412	0.243131
12.7802	12.6363	0.307403	0.246158
12.7807	12.6368	0.305781	0.245836
12.7812	12.6373	0.305928	0.247028
12.7817	12.6377	0.306932	0.24893
12.7821	12.6382	0.306361	0.248281
12.7826	12.6387	0.308358	0.249276
12.7831	12.6391	0.30709	0.249407
12.7836	12.6396	0.307931	0.251892
12.784	12.6401	0.305228	0.25175
12.7845	12.6405	0.304989	0.248338
12.785	12.641	0.305975	0.248876
12.7854	12.6415	0.306417	0.250352
12.7859	12.642	0.306091	0.250391
12.7864	12.6424	0.304251	0.250661
12.7869	12.6429	0.305739	0.248351
12.7873	12.6433	0.306601	0.247837
12.7878	12.6438	0.305238	0.248274
12.7883	12.6443	0.306006	0.250536
12.7887	12.6448	0.305584	0.250001
12.7892	12.6452	0.303691	0.245015
12.7897	12.6457	0.306013	0.245741
12.7902	12.6462	0.306936	0.246673
12.7906	12.6467	0.304191	0.245155
12.7911	12.6472	0.304451	0.243132
12.7916	12.6476	0.305746	0.241145
12.7921	12.6481	0.307035	0.240823
12.7925	12.6486	0.306198	0.239111
12.793	12.6491	0.306492	0.239287
12.7935	12.6495	0.30732	0.236435
12.7939	12.65	0.30559	0.232453
12.7944	12.6505	0.30857	0.231529
12.7949	12.6509	0.310616	0.232688
12.7954	12.6514	0.308343	0.230491
12.7958	12.6519	0.305792	0.227635
12.7963	12.6524	0.308637	0.225605
12.7968	12.6528	0.309262	0.223962
12.7972	12.6533	0.308122	0.222705
12.7977	12.6538	0.309254	0.222652
12.7982	12.6542	0.309108	0.219262
12.7987	12.6547	0.306066	0.216721
12.7991	12.6552	0.309463	0.215849
12.7996	12.6557	0.310927	0.21683
12.8001	12.6562	0.307893	0.215021
12.8006	12.6566	0.308349	0.214051
12.801	12.6571	0.30884	0.212362
12.8015	12.6576	0.310472	0.212673
12.802	12.6581	0.309318	0.212612
12.8024	12.6585	0.309617	0.213968
12.8029	12.659	0.307964	0.214603
12.8034	12.6595	0.308629	0.21382
12.8039	12.6599	0.311561	0.215379
12.8043	12.6604	0.311293	0.217085
12.8048	12.6609	0.309674	0.21913
12.8053	12.6614	0.308438	0.220063
12.8057	12.6618	0.31086	0.220368
12.8062	12.6623	0.310927	0.222394
12.8067	12.6627	0.312638	0.22707
12.8072	12.6632	0.311514	0.226862
12.8076	12.6637	0.310921	0.228829
12.8081	12.6641	0.310868	0.229056
12.8086	12.6646	0.313559	0.230423
12.8091	12.6651	0.310364	0.23225
12.8095	12.6656	0.309456	0.235497
12.81	12.6661	0.31248	0.238155
12.8105	12.6665	0.312614	0.237678
12.8109	12.667	0.31207	0.2395
12.8114	12.6675	0.311426	0.24248
12.8119	12.668	0.311566	0.245975
12.8124	12.6684	0.313286	0.246262
12.8128	12.6689	0.30972	0.2458
12.8133	12.6693	0.310803	0.249536
12.8138	12.6698	0.310238	0.253307
12.8142	12.6703	0.311233	0.254829
12.8147	12.6707	0.309112	0.253831
12.8152	12.6712	0.312149	0.256974
12.8157	12.6717	0.312671	0.258034
12.8161	12.6722	0.311534	0.261826
12.8166	12.6726	0.312943	0.265237
12.8171	12.6731	0.312466	0.264205
12.8176	12.6736	0.311409	0.263811
12.818	12.674	0.313723	0.267035
12.8185	12.6745	0.314473	0.268494
12.819	12.675	0.311726	0.268682
12.8194	12.6755	0.312174	0.268115
12.8199	12.676	0.31469	0.269034
12.8204	12.6764	0.314416	0.269925
12.8209	12.6769	0.313936	0.27062
12.8213	12.6774	0.313432	0.272797
12.8218	12.6779	0.31387	0.272686
12.8223	12.6784	0.311884	0.2698
12.8227	12.6788	0.316852	0.272177
12.8232	12.6793	0.31623	0.271691
12.8237	12.6797	0.31442	0.270598
12.8242	12.6802	0.312508	0.267582
12.8246	12.6807	0.316697	0.266343
12.8251	12.6812	0.317215	0.263903
12.8256	12.6817	0.314148	0.261706
12.8261	12.6821	0.31418	0.259818
12.8265	12.6826	0.314711	0.257207
12.827	12.683	0.314393	0.252727
12.8275	12.6835	0.317202	0.252673
12.8279	12.684	0.315236	0.250884
12.8284	12.6845	0.314567	0.248576
12.8289	12.6849	0.314231	0.245778
12.8294	12.6854	0.317274	0.241646
12.8298	12.6859	0.317462	0.238587
12.8303	12.6864	0.316001	0.238065
12.8308	12.6869	0.31817	0.235911
12.8312	12.6873	0.317119	0.230019
12.8317	12.6878	0.3168	0.224618
12.8322	12.6883	0.31981	0.223478
12.8327	12.6888	0.318959	0.222007
12.8331	12.6892	0.316144	0.219556
12.8336	12.6897	0.316953	0.217908
12.8341	12.6901	0.318597	0.219122
12.8346	12.6906	0.320238	0.220307
12.835	12.6911	0.317371	0.222601
12.8355	12.6916	0.318201	0.227674
12.836	12.692	0.318409	0.229619
12.8364	12.6925	0.318906	0.232726
12.8369	12.6929	0.322697	0.239024
12.8374	12.6934	0.319233	0.245656
12.8379	12.6939	0.319481	0.249912
12.8383	12.6944	0.319004	0.251813
12.8388	12.6948	0.32016	0.254675
12.8393	12.6953	0.320285	0.255843
12.8397	12.6958	0.318814	0.258995
12.8402	12.6963	0.318768	0.261267
12.8407	12.6967	0.317709	0.258267
12.8412	12.6972	0.318089	0.256577
12.8416	12.6977	0.320875	0.257201
12.8421	12.6982	0.320667	0.257008
12.8426	12.6986	0.31643	0.252307
12.8431	12.6991	0.318045	0.248147
12.8435	12.6995	0.319495	0.245991
12.844	12.7	0.320568	0.240544
12.8445	12.7005	0.319429	0.238644
12.8449	12.701	0.32041	0.236292
12.8454	12.7014	0.31945	0.231197
12.8459	12.7019	0.316616	0.225941
12.8464	12.7024	0.321591	0.226601
12.8468	12.7028	0.321724	0.227495
12.8473	12.7033	0.318543	0.225922
12.8478	12.7038	0.318351	0.226417
12.8482	12.7043	0.320512	0.228798
12.8487	12.7047	0.321747	0.233888
12.8492	12.7052	0.321969	0.24062
12.8497	12.7057	0.322088	0.249141
12.8501	12.7062	0.321105	0.255319
12.8506	12.7067	0.320175	0.262279
12.8511	12.7071	0.323092	0.275414
12.8516	12.7076	0.324774	0.292141
12.852	12.7081	0.322161	0.300248
12.8525	12.7086	0.321593	0.311338
12.853	12.709	0.323959	0.32693
12.8534	12.7095	0.324739	0.340151
12.8539	12.71	0.322738	0.354598
12.8544	12.7104	0.323597	0.36833
12.8549	12.7109	0.322856	0.38018
12.8553	12.7114	0.319987	0.38836
12.8558	12.7119	0.324391	0.402181
12.8563	12.7123	0.325422	0.417984
12.8567	12.7128	0.322169	0.427429
12.8572	12.7133	0.322524	0.434325
12.8577	12.7137	0.325205	0.442938
12.8582	12.7142	0.325239	0.452642
12.8586	12.7147	0.324695	0.461501
12.8591	12.7152	0.324727	0.471651
12.8596	12.7156	0.323196	0.476471
12.8601	12.7161	0.322556	0.482074
12.8605	12.7166	0.324132	0.493257
12.861	12.7171	0.323635	0.505801
12.8615	12.7176	0.321832	0.510309
12.8619	12.718	0.322654	0.513099
12.8624	12.7185	0.322063	0.513061
12.8629	12.719	0.322813	0.509601
12.8634	12.7194	0.323487	0.51004
12.8638	12.7199	0.324545	0.508635
12.8643	12.7203	0.321677	0.50091
12.8648	12.7208	0.322046	0.496126
12.8652	12.7213	0.324609	0.502021
12.8657	12.7218	0.324536	0.514006
12.8662	12.7222	0.320292	0.523215
12.8667	12.7227	0.322791	0.544281
12.8671	12.7231	0.322523	0.576017
12.8676	12.7236	0.320015	0.617094
12.8681	12.7241	0.319986	0.667932
12.8686	12.7246	0.31912	0.72267
12.869	12.725	0.317438	0.761759
12.8695	12.7255	0.318894	0.80639
12.87	12.726	0.321871	0.844736
12.8704	12.7265	0.320013	0.870276
12.8709	12.7269	0.320592	0.892501
12.8714	12.7274	0.322681	0.90867
12.8719	12.7279	0.323606	0.918063
12.8723	12.7284	0.322219	0.923673
12.8728	12.7288	0.32405	0.938495
12.8733	12.7293	0.324573	0.94824
12.8737	12.7298	0.322833	0.944834
12.8742	12.7302	0.320212	0.945299
12.8747	12.7307	0.322025	0.951915
12.8752	12.7312	0.323665	0.958983
12.8756	12.7317	0.322269	0.959258
12.8761	12.7321	0.321815	0.960065
12.8766	12.7326	0.324285	0.962165
12.8771	12.7331	0.323361	0.965371
12.8775	12.7335	0.323144	0.96873
12.878	12.734	0.324282	0.977146
12.8785	12.7345	0.323901	0.971929
12.8789	12.735	0.324882	0.969397
12.8794	12.7355	0.323533	0.973333
12.8799	12.736	0.324804	0.979012
12.8804	12.7364	0.324517	0.979633
12.8808	12.7369	0.324118	0.976098
12.8813	12.7374	0.324979	0.97937
12.8818	12.7379	0.323514	0.975568
12.8822	12.7383	0.324249	0.977101
12.8827	12.7388	0.324972	0.98661
12.8832	12.7393	0.325108	0.979711
12.8837	12.7397	0.325027	0.979182
12.8841	12.7402	0.324645	0.985753
12.8846	12.7407	0.327347	0.987926
12.8851	12.7412	0.32474	0.988151
12.8856	12.7416	0.325067	0.98567
12.886	12.7421	0.327183	0.990483
12.8865	12.7426	0.324915	0.988328
12.887	12.743	0.325639	0.991853
12.8874	12.7435	0.326506	0.996019
12.8879	12.744	0.325133	0.987909
12.8884	12.7444	0.326409	0.989332
12.8889	12.7449	0.325213	0.989718
12.8893	12.7454	0.326462	0.993624
12.8898	12.7459	0.325123	0.991282
12.8903	12.7464	0.324354	0.99321
12.8907	12.7468	0.32843	0.993843
12.8912	12.7473	0.326454	0.992225
12.8917	12.7478	0.327952	0.994917
12.8922	12.7482	0.328175	1.00045
12.8926	12.7487	0.326499	0.996141
12.8931	12.7492	0.328355	0.997198
12.8936	12.7496	0.330631	1.0025
12.8941	12.7501	0.328324	1.00305
12.8945	12.7506	0.324679	0.993657
12.895	12.751	0.326038	0.994983
12.8955	12.7515	0.328986	0.998254
12.8959	12.752	0.325647	0.995756
12.8964	12.7525	0.325004	0.99317
12.8969	12.7529	0.327703	0.997192
12.8974	12.7534	0.325792	0.994364
12.8978	12.7538	0.327678	0.992888
12.8983	12.7543	0.326922	0.998271
12.8988	12.7548	0.329051	1.00458
