# 1304     AichiSR QXAFS
# Start     : 8.9544
# End       : 9.0544
# Dir       : Forward
# Points    : 300
# ScanTime  : 1.01549
# Date      : 13.04.23 22:20
# Ring Cur. : 25.5[mA]
12.7557	12.7557	0.398394	1.21706
12.7562	12.7552	0.399691	1.21414
12.7566	12.7548	0.397861	1.2137
12.7571	12.7543	0.400007	1.21515
12.7576	12.7538	0.399114	1.21668
12.7581	12.7533	0.397759	1.217
12.7585	12.7529	0.399549	1.21854
12.759	12.7524	0.398787	1.21485
12.7595	12.752	0.400532	1.21714
12.7599	12.7515	0.399705	1.21801
12.7604	12.751	0.398922	1.21768
12.7609	12.7505	0.398235	1.21745
12.7614	12.7501	0.399692	1.21484
12.7618	12.7496	0.39955	1.21417
12.7623	12.7491	0.400452	1.21641
12.7628	12.7487	0.397494	1.2161
12.7632	12.7482	0.399799	1.21589
12.7637	12.7477	0.398526	1.21422
12.7642	12.7473	0.40089	1.21552
12.7647	12.7468	0.398139	1.21741
12.7651	12.7463	0.397879	1.21648
12.7656	12.7458	0.399644	1.2141
12.7661	12.7454	0.40054	1.2148
12.7666	12.7449	0.400779	1.21448
12.767	12.7444	0.400024	1.2163
12.7675	12.7439	0.398771	1.21643
12.768	12.7435	0.399913	1.21155
12.7684	12.743	0.400488	1.21206
12.7689	12.7425	0.399954	1.21018
12.7694	12.7421	0.40049	1.21605
12.7699	12.7416	0.398367	1.21932
12.7703	12.7411	0.39888	1.20926
12.7708	12.7406	0.399229	1.20729
12.7713	12.7402	0.399225	1.209
12.7717	12.7397	0.400571	1.21309
12.7722	12.7392	0.39857	1.21266
12.7727	12.7388	0.400441	1.20863
12.7732	12.7383	0.400812	1.20629
12.7736	12.7378	0.40083	1.20899
12.7741	12.7374	0.401371	1.20886
12.7746	12.7369	0.400477	1.20923
12.7751	12.7364	0.399464	1.20529
12.7755	12.7359	0.399944	1.20319
12.776	12.7354	0.400022	1.2032
12.7765	12.7349	0.400647	1.20238
12.7769	12.7345	0.400196	1.20483
12.7774	12.734	0.400701	1.20032
12.7779	12.7335	0.399337	1.19793
12.7784	12.733	0.401276	1.19387
12.7788	12.7326	0.400717	1.19815
12.7793	12.7321	0.399994	1.19575
12.7798	12.7317	0.400056	1.18993
12.7802	12.7312	0.399678	1.18587
12.7807	12.7307	0.400564	1.18518
12.7812	12.7302	0.40015	1.18274
12.7817	12.7297	0.398003	1.18136
12.7821	12.7293	0.39914	1.17116
12.7826	12.7288	0.39984	1.16493
12.7831	12.7284	0.399492	1.15781
12.7836	12.7279	0.399579	1.15322
12.784	12.7274	0.39793	1.14407
12.7845	12.7269	0.397172	1.12845
12.785	12.7265	0.395916	1.10564
12.7854	12.726	0.396493	1.08304
12.7859	12.7255	0.396345	1.05962
12.7864	12.725	0.393532	1.01993
12.7869	12.7245	0.394187	0.969821
12.7873	12.7241	0.393851	0.913915
12.7878	12.7236	0.39648	0.848866
12.7883	12.7231	0.397654	0.796328
12.7887	12.7227	0.398132	0.744946
12.7892	12.7222	0.398394	0.693646
12.7897	12.7217	0.399736	0.656619
12.7902	12.7213	0.399749	0.63501
12.7906	12.7208	0.399772	0.624485
12.7911	12.7203	0.39794	0.618704
12.7916	12.7199	0.39916	0.617656
12.7921	12.7194	0.40046	0.620804
12.7925	12.7189	0.398401	0.623711
12.793	12.7185	0.399185	0.63197
12.7935	12.718	0.399233	0.635651
12.7939	12.7175	0.398545	0.630748
12.7944	12.7171	0.39911	0.628758
12.7949	12.7166	0.398932	0.622546
12.7954	12.7161	0.399458	0.616344
12.7958	12.7156	0.397805	0.603058
12.7963	12.7151	0.398517	0.590694
12.7968	12.7147	0.397527	0.577885
12.7972	12.7142	0.396842	0.569707
12.7977	12.7137	0.398649	0.560253
12.7982	12.7132	0.398056	0.551994
12.7987	12.7128	0.397898	0.538427
12.7991	12.7123	0.397982	0.526569
12.7996	12.7118	0.397758	0.515394
12.8001	12.7114	0.398732	0.502801
12.8006	12.7109	0.397302	0.490406
12.801	12.7104	0.398163	0.473809
12.8015	12.7099	0.399724	0.455978
12.802	12.7095	0.398812	0.441056
12.8024	12.709	0.398991	0.426321
12.8029	12.7085	0.397847	0.409532
12.8034	12.7081	0.397669	0.391193
12.8039	12.7076	0.398377	0.375243
12.8043	12.7071	0.397798	0.359891
12.8048	12.7066	0.398078	0.347087
12.8053	12.7062	0.397542	0.332773
12.8057	12.7057	0.397708	0.319978
12.8062	12.7052	0.398674	0.308527
12.8067	12.7047	0.396895	0.300046
12.8072	12.7042	0.398341	0.294561
12.8076	12.7038	0.397681	0.288801
12.8081	12.7033	0.398272	0.282845
12.8086	12.7028	0.398028	0.280406
12.8091	12.7024	0.398409	0.279374
12.8095	12.7019	0.397883	0.281236
12.81	12.7014	0.396491	0.282987
12.8105	12.7009	0.397203	0.285687
12.8109	12.7005	0.397123	0.287266
12.8114	12.7	0.395202	0.293831
12.8119	12.6995	0.397034	0.299117
12.8124	12.6991	0.396516	0.30409
12.8128	12.6986	0.395068	0.305637
12.8133	12.6981	0.396352	0.310038
12.8138	12.6977	0.396033	0.313749
12.8142	12.6972	0.396631	0.317927
12.8147	12.6967	0.394405	0.32082
12.8152	12.6962	0.396776	0.321037
12.8157	12.6958	0.396326	0.320491
12.8161	12.6953	0.394666	0.320278
12.8166	12.6948	0.395952	0.32135
12.8171	12.6943	0.397259	0.317975
12.8176	12.6939	0.396307	0.311546
12.818	12.6934	0.397146	0.306504
12.8185	12.6929	0.394826	0.304567
12.819	12.6925	0.397368	0.298534
12.8194	12.692	0.394623	0.293555
12.8199	12.6915	0.394511	0.286931
12.8204	12.6911	0.39741	0.280231
12.8209	12.6906	0.395906	0.276834
12.8213	12.6901	0.39518	0.274885
12.8218	12.6897	0.395317	0.272441
12.8223	12.6892	0.395634	0.271173
12.8227	12.6887	0.395109	0.271408
12.8232	12.6883	0.39363	0.273683
12.8237	12.6878	0.394593	0.277162
12.8242	12.6873	0.392122	0.280517
12.8246	12.6868	0.392554	0.282212
12.8251	12.6864	0.393434	0.286149
12.8256	12.6859	0.392264	0.290792
12.8261	12.6854	0.39423	0.296842
12.8265	12.6849	0.390995	0.29975
12.827	12.6844	0.389486	0.302815
12.8275	12.684	0.392317	0.304946
12.8279	12.6835	0.392554	0.311077
12.8284	12.683	0.392798	0.313904
12.8289	12.6826	0.39195	0.315157
12.8294	12.6821	0.392611	0.316774
12.8298	12.6816	0.394251	0.319832
12.8303	12.6812	0.392471	0.323746
12.8308	12.6807	0.394512	0.328365
12.8312	12.6802	0.39317	0.331305
12.8317	12.6797	0.39297	0.330986
12.8322	12.6793	0.394627	0.334454
12.8327	12.6788	0.395497	0.337113
12.8331	12.6783	0.393958	0.339202
12.8336	12.6779	0.394616	0.339048
12.8341	12.6774	0.391605	0.337846
12.8346	12.6769	0.394427	0.338417
12.835	12.6764	0.39389	0.338674
12.8355	12.6759	0.393822	0.339793
12.836	12.6755	0.392396	0.339493
12.8364	12.675	0.393769	0.336352
12.8369	12.6745	0.393736	0.336089
12.8374	12.674	0.393814	0.335799
12.8379	12.6735	0.392431	0.336302
12.8383	12.6731	0.392737	0.333248
12.8388	12.6726	0.393602	0.33059
12.8393	12.6722	0.393851	0.329722
12.8397	12.6717	0.392441	0.327917
12.8402	12.6712	0.392577	0.328775
12.8407	12.6707	0.392725	0.325675
12.8412	12.6703	0.392974	0.322057
12.8416	12.6698	0.392714	0.31914
12.8421	12.6693	0.393674	0.319221
12.8426	12.6689	0.392338	0.316886
12.8431	12.6684	0.393139	0.312774
12.8435	12.6679	0.39253	0.309138
12.844	12.6675	0.393586	0.307042
12.8445	12.667	0.391953	0.305655
12.8449	12.6665	0.391811	0.303576
12.8454	12.666	0.391192	0.300322
12.8459	12.6656	0.39021	0.296806
12.8464	12.6651	0.392373	0.294928
12.8468	12.6646	0.392423	0.293678
12.8473	12.6641	0.391702	0.293178
12.8478	12.6637	0.390589	0.290419
12.8482	12.6632	0.389882	0.285819
12.8487	12.6627	0.392555	0.283765
12.8492	12.6623	0.389938	0.282199
12.8497	12.6618	0.389899	0.282067
12.8501	12.6613	0.390177	0.279811
12.8506	12.6609	0.389283	0.275412
12.8511	12.6604	0.391583	0.275363
12.8516	12.6599	0.390646	0.273798
12.852	12.6594	0.389588	0.27287
12.8525	12.659	0.388484	0.270848
12.853	12.6585	0.389101	0.268629
12.8534	12.6581	0.390062	0.268331
12.8539	12.6576	0.387778	0.26735
12.8544	12.6571	0.387966	0.268777
12.8549	12.6566	0.388873	0.268298
12.8553	12.6561	0.389006	0.268677
12.8558	12.6557	0.389445	0.268337
12.8563	12.6552	0.389344	0.27096
12.8567	12.6547	0.389483	0.271927
12.8572	12.6542	0.388405	0.273385
12.8577	12.6537	0.388295	0.274127
12.8582	12.6533	0.39076	0.276412
12.8586	12.6528	0.389602	0.279162
12.8591	12.6523	0.388961	0.281328
12.8596	12.6519	0.388765	0.284147
12.8601	12.6514	0.388265	0.283913
12.8605	12.6509	0.389457	0.287356
12.861	12.6504	0.389014	0.289864
12.8615	12.65	0.387181	0.29257
12.8619	12.6495	0.387552	0.29485
12.8624	12.649	0.388641	0.2966
12.8629	12.6486	0.389582	0.297908
12.8634	12.6481	0.38788	0.302315
12.8638	12.6476	0.386059	0.304501
12.8643	12.6471	0.386212	0.303194
12.8648	12.6467	0.385466	0.303145
12.8652	12.6462	0.385334	0.30527
12.8657	12.6457	0.382348	0.307459
12.8662	12.6452	0.381435	0.30737
12.8667	12.6448	0.382644	0.30774
12.8671	12.6443	0.383761	0.309359
12.8676	12.6438	0.386009	0.310506
12.8681	12.6433	0.384832	0.31221
12.8686	12.6429	0.385068	0.313871
12.869	12.6424	0.384522	0.313037
12.8695	12.6419	0.385274	0.313022
12.87	12.6415	0.388628	0.313883
12.8704	12.641	0.388133	0.315249
12.8709	12.6405	0.384861	0.314877
12.8714	12.6401	0.386289	0.314322
12.8719	12.6396	0.384245	0.313188
12.8723	12.6391	0.385482	0.312185
12.8728	12.6387	0.384466	0.312806
12.8733	12.6382	0.384927	0.312348
12.8737	12.6377	0.385957	0.311149
12.8742	12.6373	0.382919	0.307716
12.8747	12.6368	0.385296	0.308663
12.8752	12.6363	0.384491	0.310095
12.8756	12.6358	0.382757	0.30932
12.8761	12.6353	0.384183	0.307269
12.8766	12.6349	0.383557	0.30686
12.8771	12.6344	0.39038	0.309201
12.8775	12.6339	0.388382	0.310757
12.878	12.6335	0.384843	0.307571
12.8785	12.633	0.3838	0.304695
12.8789	12.6325	0.384078	0.304133
12.8794	12.6321	0.384565	0.304949
12.8799	12.6316	0.383057	0.306148
12.8804	12.6311	0.382103	0.30786
12.8808	12.6306	0.382793	0.306003
12.8813	12.6302	0.382611	0.304976
12.8818	12.6297	0.384285	0.306029
12.8822	12.6292	0.383795	0.308782
12.8827	12.6288	0.383309	0.308229
12.8832	12.6283	0.384095	0.30711
12.8837	12.6278	0.383979	0.306019
12.8841	12.6274	0.384146	0.307304
12.8846	12.6269	0.383964	0.306688
12.8851	12.6264	0.381749	0.306436
12.8856	12.6259	0.380973	0.303172
12.886	12.6254	0.382429	0.303449
12.8865	12.6249	0.384823	0.302797
12.887	12.6245	0.382871	0.302588
12.8874	12.624	0.381864	0.303507
12.8879	12.6235	0.383216	0.301567
12.8884	12.623	0.38232	0.30008
12.8889	12.6226	0.384574	0.299903
12.8893	12.6221	0.384333	0.302192
12.8898	12.6217	0.383166	0.299612
12.8903	12.6212	0.381713	0.298922
12.8907	12.6207	0.382806	0.297822
12.8912	12.6202	0.386521	0.298629
12.8917	12.6197	0.383391	0.2995
12.8922	12.6193	0.383735	0.298591
12.8926	12.6188	0.383706	0.297943
12.8931	12.6183	0.382333	0.296469
12.8936	12.6179	0.384481	0.299332
12.8941	12.6174	0.385975	0.299962
12.8945	12.6169	0.383453	0.299421
12.895	12.6164	0.383961	0.297885
12.8955	12.616	0.383201	0.297032
12.8959	12.6155	0.384589	0.298539
12.8964	12.615	0.38484	0.297909
12.8969	12.6145	0.384176	0.298541
12.8974	12.6141	0.384251	0.297355
12.8978	12.6136	0.383651	0.295301
12.8983	12.6131	0.384991	0.295182
12.8988	12.6127	0.385243	0.296735
