# 1304     AichiSR QXAFS
# Start     : 8.9544
# End       : 9.0544
# Dir       : Forward
# Points    : 300
# ScanTime  : 1.01549
# Date      : 13.04.23 22:27
# Ring Cur. : 25.4[mA]
12.7557	12.7557	0.397221	1.21659
12.7562	12.7553	0.397748	1.2124
12.7566	12.7548	0.399468	1.21063
12.7571	12.7543	0.398506	1.21311
12.7576	12.7538	0.398204	1.21325
12.7581	12.7534	0.39743	1.21196
12.7585	12.7529	0.39837	1.21306
12.759	12.7524	0.399297	1.21588
12.7595	12.752	0.399134	1.21549
12.7599	12.7515	0.398123	1.21538
12.7604	12.751	0.398868	1.21665
12.7609	12.7506	0.398273	1.21199
12.7614	12.7501	0.399957	1.21396
12.7618	12.7496	0.400988	1.21837
12.7623	12.7492	0.398652	1.215
12.7628	12.7487	0.398984	1.21425
12.7632	12.7482	0.399082	1.21558
12.7637	12.7478	0.40034	1.21459
12.7642	12.7473	0.399647	1.21489
12.7647	12.7468	0.398633	1.21573
12.7651	12.7464	0.398791	1.21224
12.7656	12.7459	0.397523	1.20921
12.7661	12.7454	0.401102	1.21082
12.7666	12.7449	0.398341	1.21412
12.767	12.7444	0.399355	1.21514
12.7675	12.744	0.397918	1.20849
12.768	12.7435	0.399792	1.2082
12.7684	12.743	0.400189	1.21197
12.7689	12.7426	0.399397	1.21176
12.7694	12.7421	0.397553	1.21241
12.7699	12.7416	0.397987	1.2108
12.7703	12.7412	0.399094	1.20991
12.7708	12.7407	0.400521	1.20866
12.7713	12.7402	0.399367	1.20936
12.7717	12.7397	0.398232	1.21075
12.7722	12.7393	0.397657	1.2066
12.7727	12.7388	0.399751	1.20589
12.7732	12.7383	0.400123	1.20606
12.7736	12.7379	0.400827	1.20713
12.7741	12.7374	0.398642	1.20893
12.7746	12.7369	0.398675	1.20505
12.7751	12.7364	0.398972	1.20022
12.7755	12.736	0.39981	1.20123
12.776	12.7355	0.398766	1.2052
12.7765	12.735	0.397812	1.20049
12.7769	12.7345	0.399114	1.19962
12.7774	12.734	0.399684	1.19808
12.7779	12.7336	0.399782	1.19544
12.7784	12.7331	0.400242	1.19574
12.7788	12.7326	0.399319	1.19276
12.7793	12.7322	0.398672	1.18895
12.7798	12.7317	0.398608	1.18515
12.7802	12.7312	0.397218	1.18237
12.7807	12.7307	0.397922	1.18164
12.7812	12.7302	0.396083	1.17594
12.7817	12.7298	0.397886	1.16961
12.7821	12.7293	0.398203	1.16796
12.7826	12.7288	0.399406	1.16349
12.7831	12.7284	0.399038	1.1601
12.7836	12.7279	0.397738	1.1517
12.784	12.7274	0.398715	1.13921
12.7845	12.727	0.395747	1.12553
12.785	12.7265	0.397985	1.11189
12.7854	12.726	0.398014	1.09049
12.7859	12.7255	0.394058	1.05879
12.7864	12.7251	0.392923	1.01648
12.7869	12.7246	0.392131	0.968795
12.7873	12.7241	0.391752	0.917139
12.7878	12.7236	0.393766	0.859523
12.7883	12.7232	0.394363	0.797113
12.7887	12.7227	0.396342	0.737327
12.7892	12.7222	0.39875	0.69226
12.7897	12.7218	0.397969	0.658398
12.7902	12.7213	0.399117	0.637374
12.7906	12.7208	0.396741	0.624876
12.7911	12.7204	0.397946	0.61776
12.7916	12.7199	0.397729	0.615777
12.7921	12.7194	0.398038	0.618257
12.7925	12.719	0.399316	0.625071
12.793	12.7185	0.397553	0.628972
12.7935	12.718	0.396625	0.631266
12.7939	12.7176	0.396535	0.629969
12.7944	12.7171	0.397128	0.627302
12.7949	12.7166	0.399395	0.623119
12.7954	12.7161	0.397043	0.614078
12.7958	12.7157	0.397423	0.598352
12.7963	12.7152	0.396818	0.588253
12.7968	12.7147	0.397737	0.579838
12.7972	12.7142	0.398098	0.571083
12.7977	12.7137	0.39653	0.559642
12.7982	12.7133	0.397524	0.550248
12.7987	12.7128	0.398163	0.537679
12.7991	12.7123	0.398849	0.527366
12.7996	12.7119	0.397441	0.518292
12.8001	12.7114	0.39553	0.503573
12.8006	12.7109	0.395727	0.487248
12.801	12.7104	0.397884	0.473317
12.8015	12.71	0.397494	0.458399
12.802	12.7095	0.398102	0.441484
12.8024	12.7091	0.395756	0.427192
12.8029	12.7086	0.397164	0.408981
12.8034	12.7081	0.396847	0.390647
12.8039	12.7076	0.396776	0.376966
12.8043	12.7072	0.398923	0.363055
12.8048	12.7067	0.396566	0.346234
12.8053	12.7062	0.396184	0.332643
12.8057	12.7057	0.396951	0.320584
12.8062	12.7052	0.395745	0.309051
12.8067	12.7047	0.397036	0.301654
12.8072	12.7043	0.394708	0.292065
12.8076	12.7038	0.395126	0.284816
12.8081	12.7033	0.395598	0.279548
12.8086	12.7029	0.397459	0.279885
12.8091	12.7024	0.397264	0.280539
12.8095	12.7019	0.395084	0.279677
12.81	12.7015	0.396158	0.28001
12.8105	12.701	0.39616	0.283064
12.8109	12.7005	0.396867	0.286675
12.8114	12.7	0.395342	0.29473
12.8119	12.6996	0.395848	0.298322
12.8124	12.6991	0.395471	0.300314
12.8128	12.6986	0.395258	0.304497
12.8133	12.6982	0.396509	0.309819
12.8138	12.6977	0.39634	0.314103
12.8142	12.6972	0.395268	0.31568
12.8147	12.6968	0.394407	0.317363
12.8152	12.6963	0.394957	0.319307
12.8157	12.6958	0.395056	0.321018
12.8161	12.6953	0.394475	0.321615
12.8166	12.6948	0.394514	0.318908
12.8171	12.6944	0.394392	0.314998
12.8176	12.6939	0.395619	0.312855
12.818	12.6934	0.394871	0.308481
12.8185	12.693	0.396342	0.305186
12.819	12.6925	0.393959	0.299307
12.8194	12.692	0.393826	0.289901
12.8199	12.6916	0.393672	0.285901
12.8204	12.6911	0.39504	0.282472
12.8209	12.6906	0.394913	0.277222
12.8213	12.6901	0.39439	0.274089
12.8218	12.6897	0.392587	0.270043
12.8223	12.6892	0.393852	0.268908
12.8227	12.6888	0.3941	0.270454
12.8232	12.6883	0.393647	0.273741
12.8237	12.6878	0.392392	0.276704
12.8242	12.6874	0.39309	0.27752
12.8246	12.6869	0.393949	0.281427
12.8251	12.6864	0.391772	0.286251
12.8256	12.6859	0.392093	0.291922
12.8261	12.6854	0.391334	0.294914
12.8265	12.6849	0.391523	0.297393
12.827	12.6845	0.392954	0.30089
12.8275	12.684	0.390079	0.305573
12.8279	12.6835	0.391839	0.309378
12.8284	12.6831	0.391169	0.310799
12.8289	12.6826	0.389206	0.313289
12.8294	12.6821	0.393859	0.317398
12.8298	12.6817	0.392175	0.32024
12.8303	12.6812	0.39111	0.323774
12.8308	12.6807	0.390727	0.325735
12.8312	12.6802	0.392612	0.328747
12.8317	12.6798	0.393621	0.331201
12.8322	12.6793	0.391781	0.334249
12.8327	12.6788	0.394284	0.33738
12.8331	12.6784	0.392926	0.338165
12.8336	12.6779	0.393415	0.335596
12.8341	12.6774	0.39455	0.338378
12.8346	12.6769	0.39333	0.33857
12.835	12.6764	0.39326	0.339126
12.8355	12.676	0.391693	0.339709
12.836	12.6755	0.392207	0.336959
12.8364	12.675	0.392875	0.33577
12.8369	12.6745	0.391918	0.335778
12.8374	12.674	0.392135	0.335525
12.8379	12.6736	0.391247	0.333492
12.8383	12.6731	0.392843	0.33084
12.8388	12.6726	0.392913	0.331802
12.8393	12.6722	0.391705	0.330002
12.8397	12.6717	0.391911	0.328626
12.8402	12.6712	0.390796	0.327063
12.8407	12.6708	0.391741	0.323659
12.8412	12.6703	0.392183	0.321196
12.8416	12.6698	0.392888	0.32039
12.8421	12.6694	0.392243	0.318769
12.8426	12.6689	0.390371	0.315337
12.8431	12.6684	0.390883	0.311817
12.8435	12.668	0.392577	0.309496
12.844	12.6675	0.391326	0.308242
12.8445	12.667	0.391134	0.306601
12.8449	12.6665	0.391057	0.303282
12.8454	12.6661	0.391014	0.300201
12.8459	12.6656	0.392114	0.298103
12.8464	12.6651	0.391084	0.295224
12.8468	12.6646	0.390262	0.295124
12.8473	12.6642	0.39153	0.292026
12.8478	12.6637	0.390218	0.287773
12.8482	12.6632	0.391877	0.28596
12.8487	12.6628	0.390718	0.284655
12.8492	12.6623	0.389236	0.284206
12.8497	12.6618	0.389975	0.280228
12.8501	12.6614	0.38925	0.276939
12.8506	12.6609	0.391173	0.275234
12.8511	12.6604	0.390904	0.274507
12.8516	12.6599	0.389293	0.273707
12.852	12.6595	0.38915	0.271332
12.8525	12.659	0.387992	0.268318
12.853	12.6586	0.389964	0.268478
12.8534	12.6581	0.389584	0.267856
12.8539	12.6576	0.388786	0.268327
12.8544	12.6571	0.387526	0.266964
12.8549	12.6567	0.387723	0.26629
12.8553	12.6562	0.389218	0.26623
12.8558	12.6557	0.388003	0.268759
12.8563	12.6552	0.388856	0.270039
12.8567	12.6547	0.387284	0.269977
12.8572	12.6543	0.387203	0.270086
12.8577	12.6538	0.390284	0.273217
12.8582	12.6533	0.388611	0.275733
12.8586	12.6528	0.388974	0.278671
12.8591	12.6524	0.387902	0.280845
12.8596	12.6519	0.386444	0.281238
12.8601	12.6515	0.389064	0.283917
12.8605	12.651	0.387361	0.287575
12.861	12.6505	0.388489	0.290593
12.8615	12.65	0.38725	0.29146
12.8619	12.6495	0.386082	0.290555
12.8624	12.6491	0.3879	0.295138
12.8629	12.6486	0.386756	0.297972
12.8634	12.6481	0.385486	0.299889
12.8638	12.6477	0.386366	0.302156
12.8643	12.6472	0.385498	0.303339
12.8648	12.6467	0.385762	0.303038
12.8652	12.6462	0.383317	0.305076
12.8657	12.6457	0.383667	0.30715
12.8662	12.6453	0.383929	0.307779
12.8667	12.6448	0.382265	0.306624
12.8671	12.6443	0.384934	0.308161
12.8676	12.6438	0.383554	0.31048
12.8681	12.6434	0.381116	0.313215
12.8686	12.6429	0.382776	0.313104
12.869	12.6424	0.385719	0.312744
12.8695	12.642	0.386197	0.313367
12.87	12.6415	0.385387	0.314571
12.8704	12.641	0.385289	0.314706
12.8709	12.6406	0.385358	0.313759
12.8714	12.6401	0.384055	0.311404
12.8719	12.6396	0.385147	0.313232
12.8723	12.6392	0.384964	0.314059
12.8728	12.6387	0.38325	0.313669
12.8733	12.6382	0.384082	0.310949
12.8737	12.6378	0.383609	0.309362
12.8742	12.6373	0.383745	0.308535
12.8747	12.6368	0.384604	0.309405
12.8752	12.6363	0.384401	0.30921
12.8756	12.6359	0.383825	0.307841
12.8761	12.6354	0.381527	0.305231
12.8766	12.6349	0.388483	0.309365
12.8771	12.6344	0.387628	0.309845
12.8775	12.634	0.383381	0.306697
12.878	12.6335	0.383397	0.305924
12.8785	12.633	0.384208	0.303184
12.8789	12.6326	0.38352	0.30465
12.8794	12.6321	0.383587	0.305257
12.8799	12.6316	0.382442	0.306633
12.8804	12.6312	0.383429	0.304848
12.8808	12.6307	0.381377	0.304392
12.8813	12.6302	0.38266	0.305464
12.8818	12.6297	0.382979	0.306633
12.8822	12.6293	0.380692	0.306546
12.8827	12.6288	0.382279	0.30619
12.8832	12.6283	0.382457	0.304442
12.8837	12.6279	0.383951	0.304997
12.8841	12.6274	0.382528	0.307257
12.8846	12.6269	0.381224	0.305669
12.8851	12.6264	0.382012	0.305466
12.8856	12.6259	0.381123	0.30331
12.886	12.6255	0.383146	0.302612
12.8865	12.625	0.382963	0.304259
12.887	12.6245	0.381748	0.304088
12.8874	12.624	0.382437	0.301567
12.8879	12.6236	0.38294	0.300856
12.8884	12.6231	0.38282	0.300461
12.8889	12.6226	0.383784	0.301666
12.8893	12.6222	0.383183	0.301333
12.8898	12.6217	0.382646	0.298617
12.8903	12.6212	0.383763	0.297621
12.8907	12.6207	0.384591	0.2978
12.8912	12.6202	0.384901	0.299527
12.8917	12.6198	0.381943	0.298421
12.8922	12.6193	0.38271	0.298214
12.8926	12.6188	0.383575	0.296783
12.8931	12.6184	0.384207	0.297931
12.8936	12.6179	0.383436	0.298755
12.8941	12.6174	0.381946	0.299005
12.8945	12.617	0.38325	0.297124
12.895	12.6165	0.383813	0.296704
12.8955	12.616	0.384664	0.297545
12.8959	12.6155	0.38311	0.2994
12.8964	12.615	0.382405	0.298294
12.8969	12.6146	0.38168	0.295778
12.8974	12.6141	0.383463	0.29544
12.8978	12.6136	0.383543	0.295562
12.8983	12.6132	0.382963	0.296707
12.8988	12.6127	0.381789	0.294884
