# 1304     AichiSR QXAFS
# Start     : 8.9544
# End       : 9.0544
# Dir       : Forward
# Points    : 300
# ScanTime  : 1.01549
# Date      : 13.04.23 22:25
# Ring Cur. : 25.4[mA]
12.7557	12.7557	0.403029	1.2245
12.7562	12.7552	0.400777	1.22293
12.7566	12.7548	0.402045	1.22641
12.7571	12.7543	0.401062	1.22543
12.7576	12.7538	0.400771	1.2231
12.7581	12.7534	0.401285	1.21926
12.7585	12.7529	0.402456	1.22179
12.759	12.7524	0.401388	1.22507
12.7595	12.752	0.401252	1.22461
12.7599	12.7515	0.399521	1.21939
12.7604	12.751	0.401686	1.2226
12.7609	12.7505	0.399922	1.22035
12.7614	12.7501	0.401272	1.22039
12.7618	12.7496	0.400177	1.22498
12.7623	12.7492	0.400314	1.21714
12.7628	12.7487	0.401774	1.21678
12.7632	12.7482	0.400925	1.21804
12.7637	12.7478	0.401818	1.22215
12.7642	12.7473	0.400678	1.21915
12.7647	12.7468	0.399421	1.21633
12.7651	12.7463	0.402095	1.21645
12.7656	12.7459	0.399193	1.21629
12.7661	12.7454	0.399341	1.21745
12.7666	12.7449	0.399566	1.2192
12.767	12.7444	0.400293	1.21798
12.7675	12.7439	0.401173	1.21292
12.768	12.7435	0.398157	1.21291
12.7684	12.743	0.399538	1.21594
12.7689	12.7425	0.39936	1.21458
12.7694	12.7421	0.399335	1.21134
12.7699	12.7416	0.401956	1.2107
12.7703	12.7411	0.399331	1.21134
12.7708	12.7407	0.40004	1.2159
12.7713	12.7402	0.4	1.21442
12.7717	12.7397	0.399562	1.2097
12.7722	12.7393	0.399771	1.20524
12.7727	12.7388	0.400024	1.20772
12.7732	12.7383	0.398613	1.20827
12.7736	12.7379	0.399418	1.20593
12.7741	12.7374	0.398197	1.20512
12.7746	12.7369	0.399383	1.20303
12.7751	12.7364	0.396818	1.20319
12.7755	12.7359	0.399041	1.20359
12.776	12.7355	0.398712	1.20188
12.7765	12.735	0.397515	1.19719
12.7769	12.7345	0.400401	1.1976
12.7774	12.734	0.399493	1.19636
12.7779	12.7335	0.396861	1.19556
12.7784	12.7331	0.397474	1.19189
12.7788	12.7326	0.398327	1.18888
12.7793	12.7321	0.400813	1.18578
12.7798	12.7317	0.397596	1.18238
12.7802	12.7312	0.397822	1.185
12.7807	12.7307	0.398548	1.18087
12.7812	12.7302	0.397396	1.17298
12.7817	12.7298	0.398729	1.17229
12.7821	12.7293	0.398241	1.16797
12.7826	12.7288	0.39753	1.16274
12.7831	12.7284	0.395827	1.15172
12.7836	12.7279	0.396742	1.14114
12.784	12.7274	0.397287	1.13442
12.7845	12.7269	0.395414	1.12352
12.785	12.7265	0.393557	1.10817
12.7854	12.726	0.393439	1.0887
12.7859	12.7255	0.39316	1.05381
12.7864	12.725	0.392	1.01725
12.7869	12.7246	0.391212	0.974344
12.7873	12.7241	0.391842	0.923964
12.7878	12.7236	0.39108	0.856214
12.7883	12.7231	0.392247	0.793504
12.7887	12.7227	0.396102	0.741205
12.7892	12.7222	0.394869	0.691932
12.7897	12.7218	0.393881	0.657291
12.7902	12.7213	0.395186	0.636129
12.7906	12.7208	0.395458	0.618446
12.7911	12.7203	0.394484	0.61318
12.7916	12.7199	0.395274	0.612996
12.7921	12.7194	0.394499	0.615833
12.7925	12.7189	0.39499	0.619242
12.793	12.7185	0.394145	0.622285
12.7935	12.718	0.393454	0.625389
12.7939	12.7175	0.392884	0.626845
12.7944	12.7171	0.392988	0.625486
12.7949	12.7166	0.393956	0.615101
12.7954	12.7161	0.394297	0.606819
12.7958	12.7156	0.394999	0.597648
12.7963	12.7152	0.394186	0.587425
12.7968	12.7147	0.393811	0.578233
12.7972	12.7142	0.391859	0.565357
12.7977	12.7137	0.394211	0.554131
12.7982	12.7132	0.39449	0.543442
12.7987	12.7128	0.394015	0.535077
12.7991	12.7123	0.393091	0.525204
12.7996	12.7119	0.394443	0.510902
12.8001	12.7114	0.393545	0.498142
12.8006	12.7109	0.394815	0.485072
12.801	12.7104	0.393113	0.471011
12.8015	12.71	0.391532	0.455878
12.802	12.7095	0.39295	0.439063
12.8024	12.709	0.392545	0.421734
12.8029	12.7086	0.392429	0.404326
12.8034	12.7081	0.391491	0.389563
12.8039	12.7076	0.391095	0.373304
12.8043	12.7071	0.390948	0.357253
12.8048	12.7067	0.391789	0.341014
12.8053	12.7062	0.392173	0.329357
12.8057	12.7057	0.393523	0.318938
12.8062	12.7052	0.389861	0.30782
12.8067	12.7047	0.390652	0.296399
12.8072	12.7042	0.392314	0.288816
12.8076	12.7038	0.392742	0.283423
12.8081	12.7033	0.391727	0.279963
12.8086	12.7028	0.390753	0.276996
12.8091	12.7024	0.392242	0.275142
12.8095	12.7019	0.391249	0.274815
12.81	12.7014	0.395111	0.278975
12.8105	12.701	0.394685	0.284714
12.8109	12.7005	0.390364	0.285779
12.8114	12.7	0.390566	0.288813
12.8119	12.6995	0.391215	0.291723
12.8124	12.6991	0.392168	0.297694
12.8128	12.6986	0.390409	0.302761
12.8133	12.6982	0.388253	0.306643
12.8138	12.6977	0.390103	0.308968
12.8142	12.6972	0.391585	0.311344
12.8147	12.6967	0.391769	0.314515
12.8152	12.6963	0.390139	0.316852
12.8157	12.6958	0.389003	0.31675
12.8161	12.6953	0.391106	0.315411
12.8166	12.6948	0.391089	0.315892
12.8171	12.6944	0.390467	0.312642
12.8176	12.6939	0.38808	0.309988
12.818	12.6934	0.389987	0.305148
12.8185	12.6929	0.388718	0.298931
12.819	12.6925	0.389946	0.295079
12.8194	12.692	0.391522	0.28875
12.8199	12.6916	0.391262	0.286544
12.8204	12.6911	0.390077	0.278787
12.8209	12.6906	0.391594	0.27413
12.8213	12.6901	0.392116	0.270338
12.8218	12.6897	0.391558	0.268943
12.8223	12.6892	0.391447	0.269113
12.8227	12.6887	0.389653	0.270492
12.8232	12.6883	0.390932	0.270531
12.8237	12.6878	0.391592	0.272606
12.8242	12.6873	0.391212	0.276979
12.8246	12.6868	0.391004	0.281417
12.8251	12.6864	0.389039	0.284961
12.8256	12.6859	0.388937	0.288054
12.8261	12.6854	0.390953	0.293171
12.8265	12.6849	0.390513	0.297441
12.827	12.6845	0.390464	0.301515
12.8275	12.684	0.388131	0.305262
12.8279	12.6835	0.388702	0.30515
12.8284	12.683	0.390774	0.309199
12.8289	12.6826	0.389832	0.312563
12.8294	12.6821	0.392068	0.317429
12.8298	12.6816	0.390822	0.321452
12.8303	12.6812	0.389804	0.321816
12.8308	12.6807	0.393893	0.324992
12.8312	12.6802	0.392614	0.328871
12.8317	12.6797	0.391893	0.33145
12.8322	12.6793	0.391679	0.334706
12.8327	12.6788	0.392083	0.334971
12.8331	12.6783	0.393145	0.336936
12.8336	12.6779	0.393884	0.338242
12.8341	12.6774	0.394079	0.341193
12.8346	12.6769	0.391779	0.339404
12.835	12.6764	0.392584	0.337801
12.8355	12.676	0.392373	0.337118
12.836	12.6755	0.393894	0.339524
12.8364	12.675	0.394811	0.338353
12.8369	12.6745	0.392338	0.337114
12.8374	12.674	0.392431	0.334502
12.8379	12.6736	0.394425	0.332197
12.8383	12.6731	0.394237	0.333115
12.8388	12.6726	0.394053	0.334963
12.8393	12.6722	0.393108	0.33189
12.8397	12.6717	0.39312	0.329231
12.8402	12.6712	0.395073	0.328178
12.8407	12.6708	0.394713	0.327266
12.8412	12.6703	0.39225	0.325121
12.8416	12.6698	0.392038	0.321454
12.8421	12.6693	0.39476	0.318608
12.8426	12.6689	0.394367	0.316295
12.8431	12.6684	0.392676	0.315219
12.8435	12.668	0.393813	0.314037
12.844	12.6675	0.394258	0.310566
12.8445	12.667	0.392815	0.304986
12.8449	12.6665	0.393851	0.303951
12.8454	12.6661	0.396472	0.30317
12.8459	12.6656	0.39389	0.29943
12.8464	12.6651	0.394219	0.297428
12.8468	12.6646	0.393267	0.29538
12.8473	12.6641	0.394807	0.293034
12.8478	12.6637	0.393791	0.290799
12.8482	12.6632	0.392755	0.290588
12.8487	12.6627	0.393109	0.287733
12.8492	12.6623	0.393012	0.284054
12.8497	12.6618	0.394797	0.282398
12.8501	12.6614	0.393843	0.282097
12.8506	12.6609	0.393346	0.280328
12.8511	12.6604	0.393557	0.278118
12.8516	12.6599	0.393046	0.274584
12.852	12.6595	0.392674	0.27445
12.8525	12.659	0.3946	0.273007
12.853	12.6585	0.392184	0.272428
12.8534	12.6581	0.391933	0.27146
12.8539	12.6576	0.392986	0.269592
12.8544	12.6571	0.395847	0.270127
12.8549	12.6566	0.393555	0.271295
12.8553	12.6562	0.393707	0.272043
12.8558	12.6557	0.39415	0.271741
12.8563	12.6552	0.39248	0.271565
12.8567	12.6547	0.394198	0.274139
12.8572	12.6542	0.3934	0.276254
12.8577	12.6538	0.392242	0.27872
12.8582	12.6533	0.393334	0.279965
12.8586	12.6528	0.393121	0.27934
12.8591	12.6524	0.39503	0.283745
12.8596	12.6519	0.39414	0.286616
12.8601	12.6514	0.393737	0.290675
12.8605	12.6509	0.39498	0.291715
12.861	12.6505	0.392273	0.292488
12.8615	12.65	0.395622	0.295543
12.8619	12.6495	0.39417	0.298271
12.8624	12.6491	0.393405	0.301887
12.8629	12.6486	0.393336	0.301806
12.8634	12.6481	0.391945	0.303545
12.8638	12.6476	0.393937	0.306739
12.8643	12.6472	0.393315	0.309745
12.8648	12.6467	0.389421	0.310319
12.8652	12.6462	0.388925	0.30993
12.8657	12.6457	0.389148	0.309507
12.8662	12.6452	0.389044	0.311389
12.8667	12.6448	0.389686	0.313246
12.8671	12.6443	0.389372	0.316615
12.8676	12.6438	0.388971	0.316382
12.8681	12.6433	0.390681	0.315538
12.8686	12.6429	0.392013	0.318224
12.869	12.6424	0.393586	0.319803
12.8695	12.642	0.390085	0.320866
12.87	12.6415	0.391945	0.319633
12.8704	12.641	0.39343	0.319486
12.8709	12.6405	0.393207	0.319353
12.8714	12.6401	0.391784	0.320063
12.8719	12.6396	0.392894	0.321895
12.8723	12.6391	0.392536	0.318932
12.8728	12.6387	0.391773	0.317214
12.8733	12.6382	0.393496	0.317762
12.8737	12.6377	0.392749	0.319071
12.8742	12.6373	0.392123	0.317272
12.8747	12.6368	0.390995	0.315619
12.8752	12.6363	0.391444	0.314885
12.8756	12.6358	0.391154	0.313375
12.8761	12.6354	0.391773	0.314671
12.8766	12.6349	0.389708	0.313673
12.8771	12.6344	0.390602	0.312525
12.8775	12.6339	0.391521	0.30965
12.878	12.6335	0.392935	0.312633
12.8785	12.633	0.39244	0.313139
12.8789	12.6325	0.389411	0.3123
12.8794	12.6321	0.388494	0.310229
12.8799	12.6316	0.390135	0.309784
12.8804	12.6311	0.391826	0.311297
12.8808	12.6307	0.391631	0.313499
12.8813	12.6302	0.390991	0.312816
12.8818	12.6297	0.390102	0.311815
12.8822	12.6292	0.390584	0.311607
12.8827	12.6288	0.391995	0.311605
12.8832	12.6283	0.39053	0.31405
12.8837	12.6278	0.390496	0.313133
12.8841	12.6274	0.389835	0.312379
12.8846	12.6269	0.389437	0.310602
12.8851	12.6264	0.39121	0.309913
12.8856	12.6259	0.391448	0.311965
12.886	12.6254	0.388765	0.310291
12.8865	12.625	0.389971	0.308377
12.887	12.6245	0.389683	0.306734
12.8874	12.624	0.39096	0.307587
12.8879	12.6235	0.391032	0.307988
12.8884	12.6231	0.389135	0.306611
12.8889	12.6226	0.388526	0.304686
12.8893	12.6221	0.38943	0.303488
12.8898	12.6217	0.389864	0.304035
12.8903	12.6212	0.388801	0.304307
12.8907	12.6207	0.387902	0.304245
12.8912	12.6202	0.387365	0.301598
12.8917	12.6198	0.3886	0.300905
12.8922	12.6193	0.389086	0.301482
12.8926	12.6188	0.390135	0.304048
12.8931	12.6184	0.38756	0.303461
12.8936	12.6179	0.387718	0.300912
12.8941	12.6174	0.389978	0.301242
12.8945	12.6169	0.387734	0.301323
12.895	12.6165	0.388629	0.303268
12.8955	12.616	0.387392	0.302453
12.8959	12.6155	0.388093	0.300817
12.8964	12.615	0.386206	0.299794
12.8969	12.6145	0.38864	0.300049
12.8974	12.6141	0.387786	0.301766
12.8978	12.6136	0.385935	0.300166
12.8983	12.6131	0.385661	0.297318
12.8988	12.6127	0.388319	0.296712
