# 1304     AichiSR QXAFS
# Start     : 8.9544
# End       : 9.0544
# Dir       : Forward
# Points    : 300
# ScanTime  : 1.01549
# Date      : 13.04.23 22:30
# Ring Cur. : 25.6[mA]
12.7557	12.7558	0.404634	1.23311
12.7562	12.7553	0.405858	1.23557
12.7566	12.7548	0.405185	1.23398
12.7571	12.7543	0.405436	1.23754
12.7576	12.7539	0.405022	1.23416
12.7581	12.7534	0.402365	1.22996
12.7585	12.7529	0.407425	1.23177
12.759	12.7525	0.404608	1.23003
12.7595	12.752	0.403454	1.23205
12.7599	12.7515	0.403144	1.23038
12.7604	12.7511	0.403983	1.22848
12.7609	12.7506	0.40491	1.22954
12.7614	12.7501	0.404742	1.23244
12.7618	12.7497	0.404153	1.23375
12.7623	12.7492	0.402533	1.22898
12.7628	12.7487	0.403106	1.22727
12.7632	12.7483	0.404975	1.22888
12.7637	12.7478	0.405612	1.23106
12.7642	12.7473	0.403669	1.23191
12.7647	12.7469	0.401984	1.22526
12.7651	12.7464	0.402971	1.2267
12.7656	12.7459	0.4044	1.22478
12.7661	12.7454	0.403138	1.2294
12.7666	12.7449	0.402788	1.22712
12.767	12.7445	0.403449	1.22376
12.7675	12.744	0.401284	1.22013
12.768	12.7435	0.402865	1.21917
12.7684	12.7431	0.402485	1.22414
12.7689	12.7426	0.400302	1.22451
12.7694	12.7421	0.40224	1.22044
12.7699	12.7417	0.401311	1.2193
12.7703	12.7412	0.40441	1.21849
12.7708	12.7407	0.401871	1.21783
12.7713	12.7402	0.400962	1.22294
12.7717	12.7398	0.401104	1.21701
12.7722	12.7393	0.401846	1.21231
12.7727	12.7388	0.401602	1.21636
12.7732	12.7384	0.401107	1.21677
12.7736	12.7379	0.401081	1.21693
12.7741	12.7374	0.400768	1.2125
12.7746	12.7369	0.402734	1.21068
12.7751	12.7365	0.401957	1.20715
12.7755	12.736	0.400621	1.21096
12.776	12.7355	0.401411	1.21326
12.7765	12.735	0.40056	1.20585
12.7769	12.7345	0.402564	1.20197
12.7774	12.7341	0.400254	1.2027
12.7779	12.7336	0.401523	1.20423
12.7784	12.7331	0.399657	1.19973
12.7788	12.7326	0.400235	1.19703
12.7793	12.7322	0.400693	1.1941
12.7798	12.7317	0.40006	1.18869
12.7802	12.7312	0.400662	1.18851
12.7807	12.7307	0.400889	1.1886
12.7812	12.7303	0.40005	1.1781
12.7817	12.7298	0.397454	1.17567
12.7821	12.7293	0.399547	1.17263
12.7826	12.7289	0.398944	1.1695
12.7831	12.7284	0.39833	1.16267
12.7836	12.7279	0.398565	1.15344
12.784	12.7275	0.400998	1.14063
12.7845	12.727	0.396972	1.1261
12.785	12.7265	0.396941	1.11212
12.7854	12.726	0.393743	1.09413
12.7859	12.7256	0.3938	1.05971
12.7864	12.7251	0.394196	1.0196
12.7869	12.7246	0.392707	0.974864
12.7873	12.7241	0.393217	0.918396
12.7878	12.7237	0.393927	0.857353
12.7883	12.7232	0.395745	0.794233
12.7887	12.7227	0.397716	0.737218
12.7892	12.7223	0.397857	0.689069
12.7897	12.7218	0.39767	0.657016
12.7902	12.7213	0.397392	0.638015
12.7906	12.7209	0.397711	0.62066
12.7911	12.7204	0.3981	0.61444
12.7916	12.7199	0.397172	0.613414
12.7921	12.7195	0.397361	0.61709
12.7925	12.719	0.397665	0.624344
12.793	12.7185	0.397654	0.625605
12.7935	12.7181	0.397137	0.630132
12.7939	12.7176	0.395632	0.62956
12.7944	12.7171	0.397082	0.62878
12.7949	12.7166	0.396065	0.622537
12.7954	12.7162	0.396664	0.611285
12.7958	12.7157	0.396397	0.600171
12.7963	12.7152	0.396228	0.588034
12.7968	12.7147	0.396757	0.578725
12.7972	12.7142	0.394094	0.568153
12.7977	12.7138	0.396106	0.556838
12.7982	12.7133	0.398961	0.547136
12.7987	12.7128	0.396703	0.536307
12.7991	12.7124	0.396335	0.527176
12.7996	12.7119	0.39601	0.516939
12.8001	12.7114	0.396037	0.500194
12.8006	12.711	0.395636	0.485893
12.801	12.7105	0.395592	0.472652
12.8015	12.71	0.394895	0.458538
12.802	12.7095	0.392813	0.441814
12.8024	12.7091	0.394815	0.422958
12.8029	12.7086	0.39528	0.40841
12.8034	12.7081	0.396047	0.391304
12.8039	12.7077	0.395562	0.375926
12.8043	12.7072	0.39545	0.359399
12.8048	12.7067	0.39405	0.343894
12.8053	12.7062	0.396291	0.331356
12.8057	12.7057	0.396886	0.319653
12.8062	12.7053	0.395007	0.307893
12.8067	12.7048	0.394289	0.298582
12.8072	12.7043	0.394574	0.290324
12.8076	12.7038	0.396103	0.284399
12.8081	12.7033	0.394039	0.279228
12.8086	12.7029	0.39412	0.278741
12.8091	12.7024	0.393576	0.277943
12.8095	12.702	0.392868	0.275437
12.81	12.7015	0.394401	0.279888
12.8105	12.701	0.394885	0.28238
12.8109	12.7005	0.393246	0.287594
12.8114	12.7	0.393916	0.291074
12.8119	12.6996	0.394744	0.293674
12.8124	12.6991	0.394689	0.299607
12.8128	12.6987	0.393381	0.303944
12.8133	12.6982	0.392362	0.308837
12.8138	12.6977	0.392007	0.311812
12.8142	12.6973	0.390809	0.313857
12.8147	12.6968	0.394373	0.315911
12.8152	12.6963	0.393189	0.318595
12.8157	12.6958	0.391426	0.318145
12.8161	12.6954	0.390838	0.317319
12.8166	12.6949	0.389946	0.314966
12.8171	12.6944	0.392547	0.314011
12.8176	12.6939	0.393513	0.31089
12.818	12.6935	0.391293	0.307421
12.8185	12.693	0.391629	0.301054
12.819	12.6925	0.392028	0.294175
12.8194	12.6921	0.391657	0.288025
12.8199	12.6916	0.390754	0.284295
12.8204	12.6911	0.391086	0.280688
12.8209	12.6907	0.391081	0.274879
12.8213	12.6902	0.389473	0.269909
12.8218	12.6897	0.394138	0.269223
12.8223	12.6893	0.394816	0.271662
12.8227	12.6888	0.391532	0.272518
12.8232	12.6883	0.389714	0.272578
12.8237	12.6879	0.389626	0.271609
12.8242	12.6874	0.391786	0.276296
12.8246	12.6869	0.390465	0.280372
12.8251	12.6864	0.389469	0.286432
12.8256	12.6859	0.38774	0.287611
12.8261	12.6855	0.388824	0.291141
12.8265	12.685	0.390154	0.295935
12.827	12.6845	0.38762	0.29933
12.8275	12.684	0.388074	0.304977
12.8279	12.6835	0.388458	0.306955
12.8284	12.6831	0.386386	0.307685
12.8289	12.6826	0.389396	0.312173
12.8294	12.6821	0.389525	0.314914
12.8298	12.6817	0.389462	0.319241
12.8303	12.6812	0.388173	0.321357
12.8308	12.6807	0.388092	0.322974
12.8312	12.6803	0.391443	0.326504
12.8317	12.6798	0.390048	0.329038
12.8322	12.6793	0.391684	0.333428
12.8327	12.6789	0.391702	0.334413
12.8331	12.6784	0.38957	0.333761
12.8336	12.6779	0.39207	0.336056
12.8341	12.6774	0.391791	0.338119
12.8346	12.677	0.390748	0.340124
12.835	12.6765	0.389949	0.337409
12.8355	12.676	0.390108	0.335935
12.836	12.6755	0.391767	0.335722
12.8364	12.675	0.39101	0.335845
12.8369	12.6746	0.391513	0.336994
12.8374	12.6741	0.392496	0.336665
12.8379	12.6736	0.39092	0.332768
12.8383	12.6731	0.392897	0.33257
12.8388	12.6727	0.392084	0.333196
12.8393	12.6722	0.390954	0.332705
12.8397	12.6717	0.392445	0.329601
12.8402	12.6713	0.391235	0.325198
12.8407	12.6708	0.394451	0.324837
12.8412	12.6703	0.393758	0.324198
12.8416	12.6699	0.392168	0.322569
12.8421	12.6694	0.392817	0.319672
12.8426	12.6689	0.39388	0.315923
12.8431	12.6685	0.39295	0.312404
12.8435	12.668	0.393261	0.312249
12.844	12.6675	0.393167	0.310308
12.8445	12.667	0.391818	0.305706
12.8449	12.6666	0.391899	0.302362
12.8454	12.6661	0.3936	0.301321
12.8459	12.6656	0.393493	0.300958
12.8464	12.6651	0.393807	0.298337
12.8468	12.6647	0.393002	0.294802
12.8473	12.6642	0.392719	0.291444
12.8478	12.6637	0.39401	0.291011
12.8482	12.6633	0.39394	0.289658
12.8487	12.6628	0.393018	0.287508
12.8492	12.6623	0.391745	0.284684
12.8497	12.6619	0.393241	0.280835
12.8501	12.6614	0.393789	0.281282
12.8506	12.6609	0.392297	0.280625
12.8511	12.6604	0.39332	0.277425
12.8516	12.66	0.392673	0.274859
12.852	12.6595	0.391512	0.273097
12.8525	12.659	0.39247	0.270527
12.853	12.6586	0.394289	0.273172
12.8534	12.6581	0.39154	0.271503
12.8539	12.6576	0.392352	0.269086
12.8544	12.6572	0.392353	0.268592
12.8549	12.6567	0.3931	0.269653
12.8553	12.6562	0.393407	0.27139
12.8558	12.6557	0.391843	0.27187
12.8563	12.6552	0.393448	0.273597
12.8567	12.6548	0.393298	0.272948
12.8572	12.6543	0.393098	0.275221
12.8577	12.6538	0.393588	0.279301
12.8582	12.6533	0.394182	0.280862
12.8586	12.6529	0.394586	0.281732
12.8591	12.6524	0.39459	0.282999
12.8596	12.6519	0.394213	0.287691
12.8601	12.6515	0.393895	0.288386
12.8605	12.651	0.392608	0.292763
12.861	12.6505	0.393376	0.293497
12.8615	12.65	0.393867	0.294989
12.8619	12.6496	0.393949	0.297749
12.8624	12.6491	0.393819	0.302268
12.8629	12.6486	0.392252	0.303894
12.8634	12.6482	0.392322	0.304946
12.8638	12.6477	0.392828	0.306605
12.8643	12.6472	0.393248	0.306493
12.8648	12.6467	0.391305	0.310854
12.8652	12.6462	0.388163	0.31123
12.8657	12.6458	0.389301	0.311639
12.8662	12.6453	0.390072	0.310462
12.8667	12.6448	0.390842	0.313691
12.8671	12.6443	0.389442	0.316301
12.8676	12.6439	0.39055	0.317331
12.8681	12.6434	0.390072	0.315819
12.8686	12.6429	0.392092	0.316841
12.869	12.6425	0.392164	0.319374
12.8695	12.642	0.392431	0.320645
12.87	12.6415	0.391754	0.319773
12.8704	12.6411	0.392026	0.321314
12.8709	12.6406	0.393584	0.319614
12.8714	12.6401	0.394032	0.320649
12.8719	12.6396	0.394207	0.32134
12.8723	12.6392	0.392422	0.32146
12.8728	12.6387	0.392445	0.317956
12.8733	12.6383	0.393263	0.317511
12.8737	12.6378	0.395534	0.31834
12.8742	12.6373	0.394324	0.317021
12.8747	12.6368	0.392664	0.31616
12.8752	12.6364	0.39161	0.315849
12.8756	12.6359	0.392111	0.312759
12.8761	12.6354	0.3921	0.313748
12.8766	12.6349	0.393754	0.315047
12.8771	12.6345	0.392722	0.314993
12.8775	12.634	0.390109	0.311533
12.878	12.6335	0.393056	0.311947
12.8785	12.6331	0.393269	0.311902
12.8789	12.6326	0.392608	0.313365
12.8794	12.6321	0.389235	0.313244
12.8799	12.6317	0.391915	0.310883
12.8804	12.6312	0.393325	0.311328
12.8808	12.6307	0.3911	0.311246
12.8813	12.6302	0.392805	0.314479
12.8818	12.6298	0.391628	0.313583
12.8822	12.6293	0.390524	0.311467
12.8827	12.6288	0.393338	0.311448
12.8832	12.6284	0.392942	0.312126
12.8837	12.6279	0.392331	0.314463
12.8841	12.6274	0.391491	0.313851
12.8846	12.6269	0.390672	0.31232
12.8851	12.6265	0.392352	0.311306
12.8856	12.626	0.391491	0.311227
12.886	12.6255	0.393543	0.313199
12.8865	12.625	0.391327	0.312541
12.887	12.6245	0.39026	0.308345
12.8874	12.624	0.392436	0.307928
12.8879	12.6236	0.391353	0.308575
12.8884	12.6231	0.391245	0.308853
12.8889	12.6226	0.389967	0.305835
12.8893	12.6222	0.390354	0.30517
12.8898	12.6217	0.390602	0.303366
12.8903	12.6212	0.390333	0.304635
12.8907	12.6208	0.391985	0.304674
12.8912	12.6203	0.390253	0.305546
12.8917	12.6198	0.389944	0.301472
12.8922	12.6193	0.391407	0.302963
12.8926	12.6189	0.391366	0.303011
12.8931	12.6184	0.39075	0.304088
12.8936	12.6179	0.388882	0.302257
12.8941	12.6175	0.388376	0.301817
12.8945	12.617	0.389623	0.301262
12.895	12.6165	0.388637	0.30267
12.8955	12.616	0.391083	0.304167
12.8959	12.6156	0.388504	0.301374
12.8964	12.6151	0.38838	0.300932
12.8969	12.6146	0.389491	0.30071
12.8974	12.6141	0.388602	0.301503
12.8978	12.6136	0.388348	0.301269
12.8983	12.6132	0.389063	0.301014
12.8988	12.6127	0.387701	0.298869
