# 1304     AichiSR QXAFS
# Start     : 8.9544
# End       : 9.0544
# Dir       : Backward
# Points    : 300
# ScanTime  : 1.01549
# Date      : 13.04.23 22:30
# Ring Cur. : 25.7[mA]
12.7557	12.6118	0.295782	0.228708
12.7562	12.6123	0.293972	0.224772
12.7566	12.6127	0.295491	0.225918
12.7571	12.6132	0.299431	0.230183
12.7576	12.6137	0.297789	0.232572
12.7581	12.6141	0.296425	0.23033
12.7585	12.6146	0.29805	0.229994
12.759	12.6151	0.295435	0.228279
12.7595	12.6156	0.297759	0.230653
12.7599	12.616	0.300612	0.233856
12.7604	12.6165	0.298131	0.233491
12.7609	12.617	0.296959	0.231159
12.7614	12.6175	0.298152	0.232179
12.7618	12.6179	0.300477	0.234134
12.7623	12.6184	0.298634	0.23389
12.7628	12.6189	0.300097	0.23532
12.7632	12.6193	0.29969	0.232788
12.7637	12.6198	0.298599	0.232552
12.7642	12.6203	0.300595	0.233051
12.7647	12.6208	0.301693	0.235877
12.7651	12.6212	0.299874	0.235678
12.7656	12.6217	0.296967	0.233378
12.7661	12.6222	0.300394	0.23391
12.7666	12.6227	0.2998	0.234443
12.767	12.6231	0.30218	0.238447
12.7675	12.6236	0.299634	0.237197
12.768	12.6241	0.300114	0.236959
12.7684	12.6245	0.301731	0.236368
12.7689	12.625	0.300692	0.238384
12.7694	12.6255	0.303318	0.242343
12.7699	12.626	0.300888	0.240916
12.7703	12.6265	0.299867	0.238584
12.7708	12.6269	0.300898	0.240138
12.7713	12.6274	0.302174	0.241492
12.7717	12.6279	0.301897	0.242219
12.7722	12.6284	0.300839	0.243829
12.7727	12.6288	0.302504	0.242074
12.7732	12.6293	0.3012	0.239746
12.7736	12.6298	0.301691	0.242143
12.7741	12.6302	0.30505	0.245008
12.7746	12.6307	0.302181	0.244144
12.7751	12.6312	0.300782	0.241146
12.7755	12.6317	0.303805	0.24121
12.776	12.6321	0.303841	0.242098
12.7765	12.6326	0.303772	0.244046
12.7769	12.633	0.303233	0.244507
12.7774	12.6335	0.303672	0.242374
12.7779	12.634	0.302879	0.241026
12.7784	12.6345	0.304892	0.242004
12.7788	12.6349	0.304502	0.24489
12.7793	12.6354	0.303599	0.244937
12.7798	12.6359	0.303545	0.242564
12.7802	12.6364	0.304762	0.244552
12.7807	12.6368	0.305801	0.245471
12.7812	12.6373	0.304512	0.246949
12.7817	12.6378	0.306208	0.248609
12.7821	12.6383	0.304558	0.247033
12.7826	12.6387	0.305564	0.246089
12.7831	12.6392	0.30515	0.246689
12.7836	12.6396	0.307553	0.251824
12.784	12.6401	0.305757	0.249737
12.7845	12.6406	0.305233	0.247848
12.785	12.6411	0.306164	0.248823
12.7854	12.6415	0.306485	0.250148
12.7859	12.642	0.306498	0.251646
12.7864	12.6425	0.306317	0.252549
12.7869	12.6429	0.305882	0.249486
12.7873	12.6434	0.3059	0.247058
12.7878	12.6439	0.306828	0.249436
12.7883	12.6443	0.308521	0.251223
12.7887	12.6448	0.30563	0.249514
12.7892	12.6453	0.303229	0.245568
12.7897	12.6458	0.307503	0.245968
12.7902	12.6462	0.30534	0.244609
12.7906	12.6467	0.304885	0.244619
12.7911	12.6472	0.306871	0.244433
12.7916	12.6477	0.307183	0.2432
12.7921	12.6482	0.306488	0.240005
12.7925	12.6486	0.307211	0.238795
12.793	12.6491	0.309015	0.241282
12.7935	12.6496	0.309725	0.238897
12.7939	12.65	0.307177	0.234109
12.7944	12.6505	0.308792	0.233171
12.7949	12.651	0.311446	0.233033
12.7954	12.6515	0.310188	0.232922
12.7958	12.652	0.311209	0.230866
12.7963	12.6524	0.310172	0.226804
12.7968	12.6529	0.309796	0.224854
12.7972	12.6533	0.310302	0.224236
12.7977	12.6538	0.311607	0.223786
12.7982	12.6543	0.31039	0.221876
12.7987	12.6548	0.30898	0.21743
12.7991	12.6552	0.312297	0.216211
12.7996	12.6557	0.311408	0.21685
12.8001	12.6562	0.309044	0.216729
12.8006	12.6567	0.311017	0.216995
12.801	12.6572	0.311657	0.21465
12.8015	12.6576	0.312802	0.213771
12.802	12.6581	0.310084	0.214452
12.8024	12.6586	0.31209	0.216205
12.8029	12.6591	0.312237	0.217091
12.8034	12.6595	0.310216	0.216527
12.8039	12.66	0.311561	0.216489
12.8043	12.6604	0.312204	0.21869
12.8048	12.6609	0.311775	0.220567
12.8053	12.6614	0.312468	0.222675
12.8057	12.6619	0.313214	0.222551
12.8062	12.6623	0.312284	0.222215
12.8067	12.6628	0.31278	0.225865
12.8072	12.6633	0.314438	0.229543
12.8076	12.6637	0.313942	0.230141
12.8081	12.6642	0.311606	0.229488
12.8086	12.6647	0.31569	0.233031
12.8091	12.6651	0.31416	0.235415
12.8095	12.6656	0.312129	0.237415
12.81	12.6661	0.315344	0.240252
12.8105	12.6666	0.315553	0.239965
12.8109	12.6671	0.312136	0.239659
12.8114	12.6675	0.311209	0.242788
12.8119	12.668	0.313964	0.248315
12.8124	12.6685	0.313499	0.247979
12.8128	12.6689	0.310329	0.247895
12.8133	12.6694	0.314153	0.25039
12.8138	12.6699	0.312272	0.255246
12.8142	12.6703	0.314776	0.256524
12.8147	12.6708	0.314772	0.260226
12.8152	12.6713	0.316643	0.261
12.8157	12.6717	0.314841	0.261729
12.8161	12.6722	0.313975	0.263314
12.8166	12.6727	0.314783	0.266878
12.8171	12.6731	0.313111	0.265913
12.8176	12.6736	0.313985	0.265923
12.818	12.6741	0.314411	0.266088
12.8185	12.6746	0.312992	0.268412
12.819	12.675	0.312769	0.269583
12.8194	12.6755	0.313013	0.270472
12.8199	12.676	0.315142	0.270853
12.8204	12.6765	0.315269	0.270892
12.8209	12.677	0.313175	0.2711
12.8213	12.6774	0.315456	0.274341
12.8218	12.6779	0.316446	0.27313
12.8223	12.6784	0.313699	0.270402
12.8227	12.6789	0.315749	0.270448
12.8232	12.6793	0.31656	0.271924
12.8237	12.6798	0.316268	0.271223
12.8242	12.6803	0.315	0.268055
12.8246	12.6807	0.314918	0.264482
12.8251	12.6812	0.316877	0.263471
12.8256	12.6817	0.314211	0.260989
12.8261	12.6822	0.315169	0.260424
12.8265	12.6826	0.314831	0.256548
12.827	12.6831	0.311378	0.251722
12.8275	12.6836	0.315766	0.250514
12.8279	12.684	0.314348	0.249851
12.8284	12.6845	0.313958	0.248349
12.8289	12.685	0.315034	0.245461
12.8294	12.6855	0.316902	0.242414
12.8298	12.686	0.317358	0.238995
12.8303	12.6864	0.315574	0.236704
12.8308	12.6869	0.315607	0.235563
12.8312	12.6874	0.317152	0.230558
12.8317	12.6879	0.315091	0.224265
12.8322	12.6883	0.317096	0.223351
12.8327	12.6888	0.315168	0.221247
12.8331	12.6893	0.315855	0.21985
12.8336	12.6897	0.315123	0.21853
12.8341	12.6902	0.318289	0.21766
12.8346	12.6907	0.317673	0.219315
12.835	12.6911	0.315794	0.221671
12.8355	12.6916	0.317953	0.225824
12.836	12.6921	0.318804	0.229732
12.8364	12.6925	0.316966	0.231112
12.8369	12.693	0.31767	0.236441
12.8374	12.6935	0.316027	0.241346
12.8379	12.6939	0.314089	0.245677
12.8383	12.6944	0.318431	0.250002
12.8388	12.6949	0.316646	0.253607
12.8393	12.6954	0.315489	0.254338
12.8397	12.6958	0.314538	0.255823
12.8402	12.6963	0.316208	0.259804
12.8407	12.6968	0.315825	0.256887
12.8412	12.6973	0.315598	0.254648
12.8416	12.6977	0.316669	0.254941
12.8421	12.6982	0.317517	0.253498
12.8426	12.6987	0.313733	0.249251
12.8431	12.6991	0.317294	0.247602
12.8435	12.6996	0.317281	0.242648
12.844	12.7001	0.31755	0.239112
12.8445	12.7005	0.315645	0.236328
12.8449	12.701	0.31606	0.233368
12.8454	12.7015	0.316766	0.229316
12.8459	12.702	0.314966	0.224753
12.8464	12.7024	0.316603	0.223187
12.8468	12.7029	0.315589	0.222447
12.8473	12.7034	0.315417	0.224422
12.8478	12.7038	0.314978	0.224252
12.8482	12.7043	0.316407	0.226175
12.8487	12.7048	0.317348	0.231462
12.8492	12.7053	0.316713	0.237255
12.8497	12.7058	0.317373	0.245363
12.8501	12.7062	0.317659	0.252108
12.8506	12.7067	0.31644	0.259701
12.8511	12.7072	0.317837	0.271721
12.8516	12.7077	0.317462	0.284136
12.852	12.7082	0.3162	0.296449
12.8525	12.7086	0.316227	0.305977
12.853	12.7091	0.319035	0.320788
12.8534	12.7095	0.317862	0.334968
12.8539	12.71	0.316035	0.348634
12.8544	12.7105	0.318485	0.363552
12.8549	12.711	0.317937	0.375268
12.8553	12.7115	0.31739	0.383621
12.8558	12.7119	0.318853	0.397776
12.8563	12.7124	0.31895	0.410142
12.8567	12.7128	0.316717	0.418291
12.8572	12.7133	0.316533	0.426948
12.8577	12.7138	0.318104	0.437425
12.8582	12.7143	0.317542	0.443067
12.8586	12.7147	0.316407	0.449071
12.8591	12.7152	0.316533	0.460999
12.8596	12.7157	0.318531	0.467339
12.8601	12.7162	0.316944	0.476032
12.8605	12.7166	0.31828	0.485752
12.861	12.7171	0.316309	0.493994
12.8615	12.7176	0.316311	0.500662
12.8619	12.7181	0.317667	0.505615
12.8624	12.7185	0.319278	0.506447
12.8629	12.719	0.316068	0.501619
12.8634	12.7195	0.316573	0.498807
12.8638	12.7199	0.317319	0.498067
12.8643	12.7204	0.315389	0.491067
12.8648	12.7209	0.316442	0.487335
12.8652	12.7213	0.317079	0.491028
12.8657	12.7218	0.314862	0.495785
12.8662	12.7223	0.313718	0.509774
12.8667	12.7227	0.314851	0.5319
12.8671	12.7232	0.315436	0.562314
12.8676	12.7237	0.313283	0.598297
12.8681	12.7241	0.313085	0.648346
12.8686	12.7246	0.312759	0.705316
12.869	12.7251	0.310454	0.749648
12.8695	12.7256	0.311058	0.79175
12.87	12.726	0.313784	0.827756
12.8704	12.7265	0.313332	0.853309
12.8709	12.727	0.312125	0.873973
12.8714	12.7275	0.313665	0.885997
12.8719	12.728	0.316044	0.899813
12.8723	12.7284	0.31316	0.902289
12.8728	12.7289	0.314164	0.910591
12.8733	12.7293	0.313963	0.92164
12.8737	12.7298	0.31401	0.921261
12.8742	12.7303	0.314383	0.924827
12.8747	12.7308	0.31519	0.929527
12.8752	12.7312	0.316168	0.935009
12.8756	12.7317	0.312601	0.93224
12.8761	12.7322	0.313868	0.938388
12.8766	12.7327	0.317278	0.942611
12.8771	12.7331	0.31583	0.939949
12.8775	12.7336	0.314836	0.940926
12.878	12.7341	0.315673	0.949597
12.8785	12.7345	0.316407	0.948649
12.8789	12.735	0.314653	0.946635
12.8794	12.7355	0.318727	0.959695
12.8799	12.736	0.317547	0.955513
12.8804	12.7365	0.31477	0.953502
12.8808	12.737	0.314242	0.950509
12.8813	12.7374	0.318441	0.956561
12.8818	12.7379	0.316345	0.953919
12.8822	12.7384	0.316542	0.955476
12.8827	12.7389	0.316776	0.960427
12.8832	12.7393	0.316892	0.962086
12.8837	12.7398	0.318153	0.958241
12.8841	12.7402	0.3181	0.960174
12.8846	12.7407	0.317378	0.960479
12.8851	12.7412	0.316667	0.963265
12.8856	12.7417	0.317233	0.96132
12.886	12.7421	0.318068	0.962863
12.8865	12.7426	0.316245	0.960298
12.887	12.7431	0.316193	0.960907
12.8874	12.7435	0.317234	0.969695
12.8879	12.744	0.316234	0.965631
12.8884	12.7445	0.317087	0.962547
12.8889	12.745	0.319892	0.967972
12.8893	12.7454	0.31978	0.971577
12.8898	12.7459	0.31763	0.972063
12.8903	12.7464	0.319644	0.974529
12.8907	12.7469	0.322807	0.977157
12.8912	12.7473	0.320134	0.97284
12.8917	12.7478	0.319072	0.972973
12.8922	12.7483	0.320246	0.979719
12.8926	12.7488	0.321428	0.97352
12.8931	12.7492	0.320451	0.972147
12.8936	12.7497	0.320628	0.979866
12.8941	12.7501	0.319211	0.975131
12.8945	12.7506	0.319859	0.975232
12.895	12.7511	0.321387	0.981754
12.8955	12.7516	0.322819	0.98627
12.8959	12.752	0.321451	0.978709
12.8964	12.7525	0.319859	0.981596
12.8969	12.753	0.323304	0.98997
12.8974	12.7534	0.322002	0.981343
12.8978	12.7539	0.324971	0.980425
12.8983	12.7544	0.322189	0.98441
12.8988	12.7548	0.322083	0.985777
