# 1304     AichiSR QXAFS
# Start     : 8.9544
# End       : 9.0544
# Dir       : Forward
# Points    : 300
# ScanTime  : 1.01549
# Date      : 13.04.23 22:30
# Ring Cur. : 25.7[mA]
12.7557	12.7558	0.40081	1.22033
12.7562	12.7553	0.400637	1.21681
12.7566	12.7548	0.400398	1.21835
12.7571	12.7543	0.400478	1.21786
12.7576	12.7539	0.399053	1.2198
12.7581	12.7534	0.397984	1.21351
12.7585	12.7529	0.399261	1.21703
12.759	12.7525	0.399915	1.21802
12.7595	12.752	0.399771	1.21884
12.7599	12.7516	0.396728	1.21872
12.7604	12.7511	0.399136	1.21576
12.7609	12.7506	0.399733	1.21431
12.7614	12.7501	0.397875	1.21173
12.7618	12.7497	0.399451	1.21656
12.7623	12.7492	0.396633	1.21355
12.7628	12.7487	0.396211	1.20902
12.7632	12.7483	0.400296	1.21063
12.7637	12.7478	0.397158	1.21306
12.7642	12.7473	0.398017	1.21311
12.7647	12.7468	0.396207	1.21276
12.7651	12.7464	0.398194	1.21042
12.7656	12.7459	0.398831	1.2085
12.7661	12.7454	0.398242	1.2109
12.7666	12.7449	0.398916	1.21085
12.767	12.7445	0.397388	1.21139
12.7675	12.744	0.396071	1.20718
12.768	12.7435	0.397531	1.20515
12.7684	12.7431	0.40171	1.218
12.7689	12.7426	0.399703	1.21227
12.7694	12.7421	0.39594	1.20571
12.7699	12.7417	0.394552	1.20309
12.7703	12.7412	0.398031	1.20043
12.7708	12.7407	0.397454	1.20215
12.7713	12.7402	0.397792	1.2031
12.7717	12.7398	0.394911	1.20465
12.7722	12.7393	0.396056	1.19763
12.7727	12.7388	0.396233	1.1981
12.7732	12.7384	0.39792	1.20105
12.7736	12.7379	0.397158	1.19736
12.7741	12.7374	0.395945	1.19999
12.7746	12.7369	0.397364	1.1971
12.7751	12.7365	0.398423	1.19317
12.7755	12.736	0.395961	1.19011
12.776	12.7355	0.397794	1.19474
12.7765	12.735	0.394591	1.19433
12.7769	12.7345	0.395303	1.1855
12.7774	12.7341	0.396361	1.18677
12.7779	12.7336	0.395783	1.18467
12.7784	12.7331	0.394793	1.18419
12.7788	12.7326	0.393846	1.18464
12.7793	12.7322	0.395402	1.18014
12.7798	12.7317	0.39698	1.1749
12.7802	12.7312	0.396371	1.17867
12.7807	12.7308	0.397651	1.17712
12.7812	12.7303	0.395351	1.17221
12.7817	12.7298	0.397085	1.16513
12.7821	12.7293	0.39782	1.16214
12.7826	12.7289	0.396568	1.15983
12.7831	12.7284	0.395939	1.15186
12.7836	12.7279	0.395464	1.1457
12.784	12.7275	0.396591	1.13233
12.7845	12.727	0.394888	1.11667
12.785	12.7265	0.395556	1.10653
12.7854	12.726	0.39332	1.08709
12.7859	12.7256	0.392035	1.05496
12.7864	12.7251	0.390865	1.01583
12.7869	12.7246	0.391654	0.971893
12.7873	12.7241	0.392379	0.919185
12.7878	12.7237	0.393188	0.858506
12.7883	12.7232	0.393706	0.799479
12.7887	12.7227	0.395481	0.738665
12.7892	12.7223	0.396251	0.690373
12.7897	12.7218	0.3961	0.656413
12.7902	12.7213	0.399006	0.636736
12.7906	12.7209	0.397166	0.620052
12.7911	12.7204	0.395736	0.613424
12.7916	12.7199	0.397946	0.613378
12.7921	12.7195	0.396128	0.615326
12.7925	12.719	0.396359	0.623577
12.793	12.7185	0.397413	0.627417
12.7935	12.7181	0.396875	0.631084
12.7939	12.7176	0.397984	0.628706
12.7944	12.7171	0.396168	0.628223
12.7949	12.7166	0.396704	0.625023
12.7954	12.7162	0.398186	0.615426
12.7958	12.7157	0.397595	0.602243
12.7963	12.7152	0.398925	0.589143
12.7968	12.7147	0.397216	0.579849
12.7972	12.7142	0.397236	0.57241
12.7977	12.7138	0.396845	0.560766
12.7982	12.7133	0.397267	0.547939
12.7987	12.7128	0.397565	0.537579
12.7991	12.7124	0.395671	0.528405
12.7996	12.7119	0.399029	0.518069
12.8001	12.7114	0.397236	0.50411
12.8006	12.711	0.398783	0.48946
12.801	12.7105	0.400265	0.4763
12.8015	12.71	0.398913	0.460627
12.802	12.7095	0.399313	0.444977
12.8024	12.7091	0.398569	0.429663
12.8029	12.7086	0.398255	0.410654
12.8034	12.7081	0.399466	0.392425
12.8039	12.7077	0.398803	0.379242
12.8043	12.7072	0.398066	0.365324
12.8048	12.7067	0.397594	0.348594
12.8053	12.7062	0.397167	0.332444
12.8057	12.7057	0.39922	0.32214
12.8062	12.7053	0.397345	0.311096
12.8067	12.7048	0.398752	0.302625
12.8072	12.7043	0.398662	0.294363
12.8076	12.7038	0.399488	0.285743
12.8081	12.7033	0.399504	0.282481
12.8086	12.7029	0.398756	0.281056
12.8091	12.7024	0.39873	0.281761
12.8095	12.702	0.397968	0.279279
12.81	12.7015	0.398259	0.280584
12.8105	12.701	0.400643	0.286046
12.8109	12.7005	0.398516	0.289661
12.8114	12.7001	0.398421	0.294709
12.8119	12.6996	0.398694	0.299752
12.8124	12.6991	0.398206	0.302771
12.8128	12.6987	0.398685	0.307362
12.8133	12.6982	0.397349	0.312345
12.8138	12.6977	0.39812	0.316989
12.8142	12.6973	0.39738	0.318365
12.8147	12.6968	0.397938	0.320609
12.8152	12.6963	0.399286	0.322013
12.8157	12.6958	0.399204	0.322547
12.8161	12.6954	0.39693	0.323018
12.8166	12.6949	0.397931	0.322547
12.8171	12.6944	0.398528	0.317404
12.8176	12.6939	0.398362	0.315362
12.818	12.6935	0.398322	0.310824
12.8185	12.693	0.397168	0.30702
12.819	12.6925	0.396911	0.300239
12.8194	12.6921	0.396527	0.293205
12.8199	12.6916	0.399698	0.287945
12.8204	12.6911	0.398379	0.283702
12.8209	12.6907	0.397295	0.280936
12.8213	12.6902	0.398545	0.276553
12.8218	12.6897	0.397435	0.272087
12.8223	12.6893	0.399019	0.272626
12.8227	12.6888	0.397872	0.275077
12.8232	12.6883	0.396623	0.275979
12.8237	12.6879	0.397581	0.277618
12.8242	12.6874	0.396576	0.280553
12.8246	12.6869	0.398458	0.284877
12.8251	12.6864	0.396549	0.29065
12.8256	12.6859	0.395368	0.294701
12.8261	12.6855	0.393942	0.296549
12.8265	12.685	0.394746	0.300231
12.827	12.6845	0.396597	0.305273
12.8275	12.684	0.395029	0.307985
12.8279	12.6835	0.394472	0.312423
12.8284	12.6831	0.393514	0.314475
12.8289	12.6826	0.396003	0.316332
12.8294	12.6822	0.397999	0.319854
12.8298	12.6817	0.396982	0.324306
12.8303	12.6812	0.395493	0.327248
12.8308	12.6807	0.396818	0.329977
12.8312	12.6802	0.396892	0.332436
12.8317	12.6798	0.396784	0.334506
12.8322	12.6793	0.398047	0.340202
12.8327	12.6789	0.397101	0.341247
12.8331	12.6784	0.396022	0.339802
12.8336	12.6779	0.395924	0.341294
12.8341	12.6774	0.39768	0.342237
12.8346	12.677	0.398486	0.343568
12.835	12.6765	0.397299	0.343121
12.8355	12.676	0.397569	0.343126
12.836	12.6755	0.397465	0.340294
12.8364	12.675	0.398747	0.340628
12.8369	12.6746	0.396597	0.342074
12.8374	12.6741	0.396585	0.340366
12.8379	12.6736	0.395579	0.337005
12.8383	12.6731	0.396088	0.334484
12.8388	12.6727	0.398363	0.334753
12.8393	12.6722	0.397758	0.334718
12.8397	12.6717	0.394649	0.332695
12.8402	12.6713	0.396157	0.33017
12.8407	12.6708	0.396535	0.3271
12.8412	12.6703	0.397648	0.325464
12.8416	12.6699	0.399318	0.325803
12.8421	12.6694	0.39839	0.323164
12.8426	12.6689	0.395995	0.31993
12.8431	12.6685	0.395985	0.314637
12.8435	12.668	0.396845	0.313855
12.844	12.6675	0.395269	0.311242
12.8445	12.667	0.39352	0.3097
12.8449	12.6666	0.395447	0.306358
12.8454	12.6661	0.395706	0.302761
12.8459	12.6656	0.396124	0.30118
12.8464	12.6651	0.397407	0.300225
12.8468	12.6647	0.395115	0.297816
12.8473	12.6642	0.394644	0.294199
12.8478	12.6637	0.395783	0.2925
12.8482	12.6633	0.394737	0.290043
12.8487	12.6628	0.396503	0.288389
12.8492	12.6623	0.394572	0.286785
12.8497	12.6619	0.393299	0.284526
12.8501	12.6614	0.39537	0.280853
12.8506	12.6609	0.394844	0.27905
12.8511	12.6604	0.395041	0.27939
12.8516	12.66	0.393702	0.277594
12.852	12.6595	0.392843	0.274018
12.8525	12.659	0.39212	0.271355
12.853	12.6586	0.393954	0.272621
12.8534	12.6581	0.394613	0.272357
12.8539	12.6576	0.393344	0.271268
12.8544	12.6572	0.391944	0.270702
12.8549	12.6567	0.394269	0.270545
12.8553	12.6562	0.393337	0.270012
12.8558	12.6557	0.393639	0.273494
12.8563	12.6552	0.392523	0.273995
12.8567	12.6548	0.392946	0.274076
12.8572	12.6543	0.392474	0.273332
12.8577	12.6538	0.394007	0.276676
12.8582	12.6533	0.394238	0.281282
12.8586	12.6529	0.393482	0.283515
12.8591	12.6524	0.392775	0.283331
12.8596	12.6519	0.392898	0.285122
12.8601	12.6515	0.393828	0.28761
12.8605	12.651	0.392259	0.291602
12.861	12.6505	0.393216	0.294737
12.8615	12.65	0.393483	0.294631
12.8619	12.6496	0.393382	0.297508
12.8624	12.6491	0.392933	0.302301
12.8629	12.6486	0.393187	0.302345
12.8634	12.6482	0.390976	0.305736
12.8638	12.6477	0.392676	0.305159
12.8643	12.6472	0.391839	0.307294
12.8648	12.6467	0.389813	0.308154
12.8652	12.6462	0.389509	0.310734
12.8657	12.6458	0.390025	0.311737
12.8662	12.6453	0.387483	0.310331
12.8667	12.6448	0.386864	0.310922
12.8671	12.6443	0.389148	0.312981
12.8676	12.6439	0.391135	0.317649
12.8681	12.6434	0.38927	0.316389
12.8686	12.6429	0.39159	0.315404
12.869	12.6425	0.391173	0.318845
12.8695	12.642	0.392241	0.318437
12.87	12.6415	0.392717	0.320684
12.8704	12.6411	0.39135	0.319603
12.8709	12.6406	0.39073	0.316842
12.8714	12.6401	0.39153	0.317538
12.8719	12.6397	0.392076	0.317505
12.8723	12.6392	0.390832	0.318586
12.8728	12.6387	0.389554	0.317298
12.8733	12.6383	0.390775	0.315358
12.8737	12.6378	0.392135	0.315232
12.8742	12.6373	0.390503	0.315376
12.8747	12.6368	0.390674	0.314933
12.8752	12.6364	0.389508	0.314977
12.8756	12.6359	0.390614	0.312832
12.8761	12.6354	0.390511	0.31194
12.8766	12.6349	0.390952	0.312781
12.8771	12.6345	0.39173	0.313993
12.8775	12.634	0.389103	0.311937
12.878	12.6335	0.388027	0.310177
12.8785	12.6331	0.391019	0.30856
12.8789	12.6326	0.389057	0.309989
12.8794	12.6321	0.390412	0.311013
12.8799	12.6317	0.38955	0.310837
12.8804	12.6312	0.388878	0.308977
12.8808	12.6307	0.390999	0.309723
12.8813	12.6302	0.389249	0.311316
12.8818	12.6298	0.38857	0.311667
12.8822	12.6293	0.387857	0.309782
12.8827	12.6288	0.388276	0.309283
12.8832	12.6284	0.390682	0.31076
12.8837	12.6279	0.388165	0.310342
12.8841	12.6274	0.388139	0.31179
12.8846	12.6269	0.388371	0.311075
12.8851	12.6265	0.387605	0.309096
12.8856	12.626	0.389972	0.30827
12.886	12.6255	0.388963	0.310403
12.8865	12.625	0.386953	0.30919
12.887	12.6245	0.387124	0.30701
12.8874	12.6241	0.387752	0.305918
12.8879	12.6236	0.387548	0.304892
12.8884	12.6231	0.388018	0.30533
12.8889	12.6226	0.386297	0.305325
12.8893	12.6222	0.386856	0.305282
12.8898	12.6217	0.386301	0.3012
12.8903	12.6212	0.387751	0.300773
12.8907	12.6208	0.387725	0.301471
12.8912	12.6203	0.385857	0.301359
12.8917	12.6198	0.385573	0.299449
12.8922	12.6193	0.384486	0.29943
12.8926	12.6189	0.386449	0.30022
12.8931	12.6184	0.385058	0.300509
12.8936	12.6179	0.385692	0.300181
12.8941	12.6175	0.386132	0.300427
12.8945	12.617	0.385147	0.29839
12.895	12.6165	0.386904	0.299535
12.8955	12.616	0.386306	0.299462
12.8959	12.6156	0.38495	0.301766
12.8964	12.6151	0.383828	0.299086
12.8969	12.6146	0.383032	0.297192
12.8974	12.6141	0.386653	0.297712
12.8978	12.6137	0.384732	0.297725
12.8983	12.6132	0.382955	0.297335
12.8988	12.6127	0.383584	0.296577
