# 1306 Aichi SR 2D Scan
# Date      : 13.09.25 16:47:30.184
# Ring Cur. : 0.1[mA]
# Axis 0    :         -10         10          2         10 : Sample Stage 1(Xs)
# Axis 1    :         -10         10          2         10 : Sample Stage 1(Zs)
#
        -10        -10        761
         -8        -10        761
         -6        -10        761
         -4        -10        761
         -2        -10        762
          0        -10        762
          2        -10        759
          4        -10        759
          6        -10        762
          8        -10        762

        -10         -8        757
         -8         -8        760
         -6         -8        757
         -4         -8        753
         -2         -8        757
          0         -8        759
          2         -8        759
          4         -8        760
          6         -8        759
          8         -8        756

        -10         -6        764
         -8         -6        765
         -6         -6        764
         -4         -6        766
         -2         -6        764
          0         -6        763
          2         -6        762
          4         -6        764
          6         -6        763
          8         -6        765

        -10         -4        764
         -8         -4        764
         -6         -4        763
         -4         -4        763
         -2         -4        761
          0         -4        763
          2         -4        762
          4         -4        763
          6         -4        763
          8         -4        764

        -10         -2        759
         -8         -2        761
         -6         -2        759
         -4         -2        759
         -2         -2        758
          0         -2        759
          2         -2        760
          4         -2        759
          6         -2        759
          8         -2        760

        -10          0        758
         -8          0        760
         -6          0        759
         -4          0        760
         -2          0        761
          0          0        759
          2          0        759
          4          0        761
          6          0        760
          8          0        761

        -10          2        762
         -8          2        763
         -6          2        764
         -4          2        761
         -2          2        761
          0          2        762
          2          2        761
          4          2        764
          6          2        762
          8          2        762

        -10          4        760
         -8          4        761
         -6          4        760
         -4          4        760
         -2          4        761
          0          4        761
          2          4        761
          4          4        763
          6          4        762
          8          4        760

        -10          6        758
         -8          6        757
         -6          6        759
         -4          6        757
         -2          6        760
          0          6        758
          2          6        759
          4          6        759
          6          6        757
          8          6        759

        -10          8        755
         -8          8        754
         -6          8        751
         -4          8        754
         -2          8        754
          0          8        753
          2          8        755
          4          8        756
          6          8        757
          8          8        756

        -10         10        754
         -8         10        754
         -6         10        754
         -4         10        755
         -2         10        758
          0         10        753
          2         10        755
          4         10        754
          6         10        755
          8         10        754

# Date      : 13.09.25 16:53:39.830
# Ring Cur. : 0.1[mA]
