# 1304     AichiSR QXAFS
# Start     : 8.9544
# End       : 9.0544
# Dir       : Forward
# Points    : 300
# ScanTime  : 1.01549
# Date      : 13.04.23 22:23
# Ring Cur. : 25.4[mA]
12.7557	12.7557	0.402797	1.22865
12.7562	12.7552	0.404427	1.22697
12.7566	12.7548	0.402376	1.22974
12.7571	12.7543	0.402607	1.23116
12.7576	12.7538	0.40133	1.22766
12.7581	12.7533	0.40172	1.22659
12.7585	12.7529	0.403726	1.22619
12.759	12.7524	0.403029	1.22811
12.7595	12.752	0.402243	1.22945
12.7599	12.7515	0.402062	1.23078
12.7604	12.751	0.402517	1.22183
12.7609	12.7505	0.402913	1.22307
12.7614	12.7501	0.402667	1.22777
12.7618	12.7496	0.402563	1.22658
12.7623	12.7491	0.401673	1.22495
12.7628	12.7487	0.402166	1.22441
12.7632	12.7482	0.402495	1.22126
12.7637	12.7477	0.402452	1.22617
12.7642	12.7473	0.403252	1.2244
12.7647	12.7468	0.402139	1.22279
12.7651	12.7463	0.401456	1.22207
12.7656	12.7458	0.404338	1.22171
12.7661	12.7454	0.402587	1.22261
12.7666	12.7449	0.403134	1.22252
12.767	12.7444	0.401776	1.22049
12.7675	12.7439	0.402717	1.21761
12.768	12.7435	0.402357	1.21693
12.7684	12.743	0.402218	1.21907
12.7689	12.7425	0.401017	1.22029
12.7694	12.7421	0.400989	1.21631
12.7699	12.7416	0.401919	1.21519
12.7703	12.7411	0.403441	1.2159
12.7708	12.7406	0.402206	1.21549
12.7713	12.7402	0.401938	1.2164
12.7717	12.7397	0.401093	1.21836
12.7722	12.7392	0.399806	1.21028
12.7727	12.7388	0.401359	1.21101
12.7732	12.7383	0.400091	1.21317
12.7736	12.7378	0.400573	1.21346
12.7741	12.7374	0.400938	1.21105
12.7746	12.7369	0.399482	1.20779
12.7751	12.7364	0.401569	1.20497
12.7755	12.7359	0.399828	1.20738
12.776	12.7354	0.399228	1.20882
12.7765	12.735	0.399655	1.20318
12.7769	12.7345	0.399557	1.20203
12.7774	12.734	0.401267	1.20105
12.7779	12.7335	0.402003	1.20285
12.7784	12.7331	0.400119	1.19758
12.7788	12.7326	0.398587	1.19604
12.7793	12.7321	0.400172	1.19044
12.7798	12.7317	0.400306	1.18733
12.7802	12.7312	0.399914	1.18756
12.7807	12.7307	0.398473	1.18486
12.7812	12.7302	0.398176	1.17905
12.7817	12.7297	0.398125	1.17227
12.7821	12.7293	0.400161	1.17159
12.7826	12.7288	0.399199	1.16632
12.7831	12.7284	0.399016	1.16017
12.7836	12.7279	0.398165	1.15123
12.784	12.7274	0.39886	1.13977
12.7845	12.7269	0.399849	1.13004
12.785	12.7265	0.397808	1.11207
12.7854	12.726	0.396886	1.09157
12.7859	12.7255	0.395152	1.0591
12.7864	12.725	0.392088	1.02075
12.7869	12.7246	0.393503	0.976101
12.7873	12.7241	0.393563	0.924002
12.7878	12.7236	0.395137	0.864158
12.7883	12.7231	0.395883	0.801293
12.7887	12.7227	0.397336	0.743044
12.7892	12.7222	0.398746	0.698117
12.7897	12.7218	0.399177	0.661731
12.7902	12.7213	0.397068	0.639333
12.7906	12.7208	0.398182	0.624913
12.7911	12.7203	0.397443	0.615191
12.7916	12.7199	0.398837	0.615531
12.7921	12.7194	0.398304	0.620141
12.7925	12.7189	0.396909	0.623052
12.793	12.7185	0.397916	0.625944
12.7935	12.718	0.39594	0.629348
12.7939	12.7175	0.398906	0.628966
12.7944	12.7171	0.396669	0.628227
12.7949	12.7166	0.397099	0.625226
12.7954	12.7161	0.396373	0.612262
12.7958	12.7156	0.396996	0.601167
12.7963	12.7151	0.399071	0.5914
12.7968	12.7147	0.39691	0.5836
12.7972	12.7142	0.396676	0.570489
12.7977	12.7137	0.396514	0.558418
12.7982	12.7132	0.397197	0.547041
12.7987	12.7128	0.398892	0.536514
12.7991	12.7123	0.397804	0.528302
12.7996	12.7119	0.395484	0.518089
12.8001	12.7114	0.397079	0.502538
12.8006	12.7109	0.395084	0.486136
12.801	12.7104	0.396827	0.473986
12.8015	12.7099	0.397256	0.459405
12.802	12.7095	0.395542	0.443825
12.8024	12.709	0.3957	0.425771
12.8029	12.7086	0.395744	0.408032
12.8034	12.7081	0.395881	0.392245
12.8039	12.7076	0.395303	0.377139
12.8043	12.7071	0.396242	0.362708
12.8048	12.7066	0.395248	0.345814
12.8053	12.7062	0.394251	0.331711
12.8057	12.7057	0.396524	0.320802
12.8062	12.7052	0.395881	0.310127
12.8067	12.7047	0.395585	0.301214
12.8072	12.7042	0.3951	0.291491
12.8076	12.7038	0.39406	0.284355
12.8081	12.7033	0.395904	0.280001
12.8086	12.7028	0.395836	0.280444
12.8091	12.7024	0.394261	0.279501
12.8095	12.7019	0.39333	0.277202
12.81	12.7014	0.394333	0.278239
12.8105	12.7009	0.395266	0.282327
12.8109	12.7005	0.39455	0.287863
12.8114	12.7	0.392561	0.292054
12.8119	12.6995	0.393467	0.29523
12.8124	12.6991	0.392116	0.298235
12.8128	12.6986	0.393493	0.302899
12.8133	12.6982	0.3944	0.308974
12.8138	12.6977	0.394227	0.312839
12.8142	12.6972	0.393481	0.314188
12.8147	12.6967	0.392379	0.314362
12.8152	12.6962	0.392954	0.317299
12.8157	12.6958	0.393567	0.320054
12.8161	12.6953	0.392101	0.319003
12.8166	12.6948	0.391228	0.315983
12.8171	12.6943	0.393169	0.313048
12.8176	12.6939	0.392509	0.310487
12.818	12.6934	0.391901	0.30668
12.8185	12.6929	0.389751	0.303301
12.819	12.6925	0.392954	0.296252
12.8194	12.692	0.392303	0.288681
12.8199	12.6915	0.393755	0.285668
12.8204	12.6911	0.393447	0.281075
12.8209	12.6906	0.391524	0.276587
12.8213	12.6901	0.390857	0.272901
12.8218	12.6897	0.391142	0.269408
12.8223	12.6892	0.39123	0.268177
12.8227	12.6887	0.391519	0.270326
12.8232	12.6883	0.391445	0.271927
12.8237	12.6878	0.392172	0.273604
12.8242	12.6873	0.390186	0.275633
12.8246	12.6868	0.394952	0.28165
12.8251	12.6864	0.39385	0.286946
12.8256	12.6859	0.389232	0.289232
12.8261	12.6854	0.390348	0.292525
12.8265	12.6849	0.388919	0.295735
12.827	12.6844	0.390487	0.298911
12.8275	12.684	0.389905	0.303125
12.8279	12.6835	0.389219	0.307434
12.8284	12.683	0.388365	0.308061
12.8289	12.6826	0.387703	0.311277
12.8294	12.6821	0.38876	0.313729
12.8298	12.6816	0.389571	0.319704
12.8303	12.6812	0.388558	0.319822
12.8308	12.6807	0.389339	0.322682
12.8312	12.6802	0.390527	0.324879
12.8317	12.6797	0.390884	0.328374
12.8322	12.6793	0.391181	0.332842
12.8327	12.6788	0.389639	0.334775
12.8331	12.6783	0.391883	0.334731
12.8336	12.6779	0.391226	0.335952
12.8341	12.6774	0.392049	0.336918
12.8346	12.6769	0.392352	0.339634
12.835	12.6764	0.389815	0.33759
12.8355	12.6759	0.390708	0.336174
12.836	12.6755	0.391819	0.334375
12.8364	12.675	0.390647	0.335577
12.8369	12.6745	0.391404	0.337221
12.8374	12.674	0.391343	0.334829
12.8379	12.6735	0.391516	0.332395
12.8383	12.6731	0.392748	0.33048
12.8388	12.6726	0.390888	0.331448
12.8393	12.6722	0.39274	0.330716
12.8397	12.6717	0.390624	0.327948
12.8402	12.6712	0.390742	0.326077
12.8407	12.6707	0.392986	0.323185
12.8412	12.6703	0.3925	0.32127
12.8416	12.6698	0.393207	0.32214
12.8421	12.6693	0.389877	0.319678
12.8426	12.6689	0.392606	0.314541
12.8431	12.6684	0.394311	0.312025
12.8435	12.6679	0.393133	0.310804
12.844	12.6675	0.393229	0.310529
12.8445	12.667	0.391998	0.306081
12.8449	12.6665	0.394083	0.303445
12.8454	12.666	0.391184	0.301343
12.8459	12.6656	0.393513	0.298965
12.8464	12.6651	0.393613	0.297335
12.8468	12.6646	0.390712	0.295771
12.8473	12.6641	0.39234	0.290709
12.8478	12.6637	0.393815	0.290132
12.8482	12.6632	0.393871	0.28888
12.8487	12.6627	0.394064	0.28859
12.8492	12.6623	0.391459	0.283903
12.8497	12.6618	0.391544	0.28136
12.8501	12.6613	0.392725	0.280069
12.8506	12.6609	0.393819	0.278288
12.8511	12.6604	0.394481	0.278841
12.8516	12.6599	0.392063	0.277189
12.852	12.6595	0.392445	0.272495
12.8525	12.659	0.392426	0.270887
12.853	12.6585	0.393232	0.271889
12.8534	12.6581	0.392843	0.27159
12.8539	12.6576	0.391718	0.271462
12.8544	12.6571	0.390389	0.270017
12.8549	12.6566	0.393124	0.268762
12.8553	12.6561	0.392728	0.270258
12.8558	12.6557	0.394227	0.272576
12.8563	12.6552	0.393744	0.273602
12.8567	12.6547	0.391553	0.2731
12.8572	12.6542	0.393608	0.274043
12.8577	12.6537	0.39366	0.276557
12.8582	12.6533	0.394052	0.280808
12.8586	12.6528	0.393255	0.282982
12.8591	12.6524	0.392227	0.283575
12.8596	12.6519	0.392936	0.284252
12.8601	12.6514	0.393466	0.288739
12.8605	12.6509	0.393747	0.291805
12.861	12.6505	0.392546	0.293297
12.8615	12.65	0.392815	0.295917
12.8619	12.6495	0.39336	0.297265
12.8624	12.649	0.395272	0.301576
12.8629	12.6486	0.39391	0.304307
12.8634	12.6481	0.392699	0.305461
12.8638	12.6476	0.392141	0.30591
12.8643	12.6471	0.393212	0.306813
12.8648	12.6467	0.391729	0.30836
12.8652	12.6462	0.389572	0.310358
12.8657	12.6457	0.389091	0.311629
12.8662	12.6452	0.388135	0.310577
12.8667	12.6447	0.390153	0.313255
12.8671	12.6443	0.391158	0.314065
12.8676	12.6438	0.392038	0.317459
12.8681	12.6433	0.38966	0.317334
12.8686	12.6429	0.392217	0.317264
12.869	12.6424	0.394323	0.318575
12.8695	12.642	0.39225	0.319551
12.87	12.6415	0.392645	0.322833
12.8704	12.641	0.392656	0.322277
12.8709	12.6405	0.391529	0.32004
12.8714	12.6401	0.393936	0.31929
12.8719	12.6396	0.394885	0.319448
12.8723	12.6391	0.393612	0.321851
12.8728	12.6387	0.392067	0.320158
12.8733	12.6382	0.392727	0.318081
12.8737	12.6377	0.394337	0.318516
12.8742	12.6373	0.392951	0.318423
12.8747	12.6368	0.393198	0.317784
12.8752	12.6363	0.394489	0.317284
12.8756	12.6358	0.39333	0.314429
12.8761	12.6354	0.393222	0.313908
12.8766	12.6349	0.39327	0.314491
12.8771	12.6344	0.393962	0.315001
12.8775	12.6339	0.392872	0.313177
12.878	12.6335	0.391114	0.312318
12.8785	12.633	0.394047	0.312264
12.8789	12.6325	0.393156	0.31189
12.8794	12.6321	0.392332	0.314205
12.8799	12.6316	0.392769	0.314085
12.8804	12.6311	0.392761	0.312572
12.8808	12.6306	0.393519	0.312087
12.8813	12.6302	0.393165	0.314443
12.8818	12.6297	0.393307	0.313936
12.8822	12.6292	0.392911	0.313964
12.8827	12.6288	0.391842	0.312643
12.8832	12.6283	0.394115	0.313206
12.8837	12.6278	0.392188	0.313997
12.8841	12.6274	0.392166	0.315919
12.8846	12.6269	0.391739	0.313878
12.8851	12.6264	0.392064	0.31172
12.8856	12.6259	0.393416	0.311662
12.886	12.6254	0.393633	0.312341
12.8865	12.625	0.392027	0.3123
12.887	12.6245	0.392872	0.310739
12.8874	12.624	0.391478	0.308117
12.8879	12.6235	0.393608	0.307748
12.8884	12.6231	0.392081	0.308185
12.8889	12.6226	0.393263	0.308425
12.8893	12.6221	0.391739	0.307126
12.8898	12.6217	0.390385	0.304624
12.8903	12.6212	0.392761	0.304369
12.8907	12.6207	0.392217	0.305722
12.8912	12.6202	0.389946	0.305183
12.8917	12.6197	0.390849	0.303809
12.8922	12.6193	0.389453	0.30388
12.8926	12.6188	0.392744	0.304126
12.8931	12.6184	0.391178	0.303245
12.8936	12.6179	0.389531	0.304567
12.8941	12.6174	0.390564	0.303192
12.8945	12.6169	0.391786	0.301842
12.895	12.6164	0.390683	0.30189
12.8955	12.616	0.391593	0.302777
12.8959	12.6155	0.390825	0.304996
12.8964	12.615	0.390552	0.301979
12.8969	12.6145	0.389712	0.30114
12.8974	12.6141	0.391881	0.301727
12.8978	12.6136	0.390242	0.301702
12.8983	12.6131	0.389341	0.30257
12.8988	12.6127	0.390004	0.301013
