# 1304     AichiSR QXAFS
# Start     : 8.9544
# End       : 9.0544
# Dir       : Backward
# Points    : 300
# ScanTime  : 1.01549
# Date      : 13.04.23 22:20
# Ring Cur. : 25.5[mA]
12.7557	12.6117	0.296805	0.225543
12.7562	12.6122	0.295756	0.226809
12.7566	12.6127	0.296297	0.229192
12.7571	12.6131	0.297666	0.229742
12.7576	12.6136	0.294094	0.226622
12.7581	12.614	0.298437	0.230429
12.7585	12.6145	0.301945	0.233776
12.759	12.615	0.295456	0.23083
12.7595	12.6155	0.294457	0.231428
12.7599	12.616	0.297027	0.229367
12.7604	12.6164	0.297812	0.231275
12.7609	12.6169	0.298409	0.23213
12.7614	12.6174	0.297689	0.233457
12.7618	12.6179	0.299219	0.23207
12.7623	12.6183	0.296019	0.230243
12.7628	12.6188	0.300659	0.232564
12.7632	12.6193	0.2986	0.233381
12.7637	12.6197	0.298344	0.235155
12.7642	12.6202	0.297816	0.232015
12.7647	12.6207	0.298308	0.231684
12.7651	12.6212	0.299198	0.232702
12.7656	12.6216	0.297096	0.233612
12.7661	12.6221	0.298054	0.235212
12.7666	12.6226	0.297654	0.232604
12.767	12.623	0.298713	0.232246
12.7675	12.6235	0.299013	0.232872
12.768	12.624	0.298599	0.23736
12.7684	12.6245	0.299647	0.238091
12.7689	12.6249	0.296044	0.23526
12.7694	12.6254	0.299176	0.239175
12.7699	12.6259	0.300565	0.238331
12.7703	12.6264	0.301355	0.240707
12.7708	12.6268	0.299204	0.239917
12.7713	12.6273	0.300072	0.241743
12.7717	12.6278	0.2995	0.239297
12.7722	12.6283	0.298834	0.239154
12.7727	12.6287	0.300612	0.241601
12.7732	12.6292	0.300469	0.242526
12.7736	12.6297	0.300181	0.240091
12.7741	12.6301	0.301488	0.239818
12.7746	12.6306	0.302029	0.239631
12.7751	12.6311	0.300501	0.240936
12.7755	12.6316	0.303263	0.244463
12.776	12.632	0.302062	0.241416
12.7765	12.6325	0.30229	0.240292
12.7769	12.633	0.303793	0.242048
12.7774	12.6334	0.303801	0.243357
12.7779	12.6339	0.300336	0.241474
12.7784	12.6344	0.302796	0.241776
12.7788	12.6348	0.303089	0.241329
12.7793	12.6353	0.302842	0.239895
12.7798	12.6358	0.302221	0.242741
12.7802	12.6363	0.303991	0.245734
12.7807	12.6367	0.30239	0.24401
12.7812	12.6372	0.301289	0.24292
12.7817	12.6377	0.304592	0.245338
12.7821	12.6382	0.305337	0.248065
12.7826	12.6386	0.304732	0.248157
12.7831	12.6391	0.305784	0.248456
12.7836	12.6396	0.307786	0.247892
12.784	12.64	0.305097	0.248083
12.7845	12.6405	0.30515	0.250408
12.785	12.641	0.304707	0.251484
12.7854	12.6415	0.305632	0.249813
12.7859	12.6419	0.305201	0.248332
12.7864	12.6424	0.305542	0.248896
12.7869	12.6428	0.305895	0.249851
12.7873	12.6433	0.304421	0.249225
12.7878	12.6438	0.302709	0.245847
12.7883	12.6442	0.305572	0.246335
12.7887	12.6447	0.305087	0.246312
12.7892	12.6452	0.304345	0.245803
12.7897	12.6457	0.305016	0.247892
12.7902	12.6462	0.305866	0.244352
12.7906	12.6466	0.305653	0.24159
12.7911	12.6471	0.306702	0.243225
12.7916	12.6476	0.308224	0.243828
12.7921	12.6481	0.30586	0.24126
12.7925	12.6486	0.305485	0.238485
12.793	12.649	0.310204	0.238936
12.7935	12.6495	0.308252	0.237959
12.7939	12.6499	0.306542	0.235275
12.7944	12.6504	0.307868	0.234566
12.7949	12.6509	0.310216	0.232751
12.7954	12.6514	0.309919	0.229151
12.7958	12.6519	0.310974	0.229562
12.7963	12.6523	0.311893	0.230055
12.7968	12.6528	0.310153	0.225295
12.7972	12.6533	0.309734	0.223683
12.7977	12.6537	0.314285	0.222917
12.7982	12.6542	0.310156	0.221643
12.7987	12.6547	0.310507	0.220299
12.7991	12.6552	0.311433	0.219559
12.7996	12.6556	0.311354	0.21678
12.8001	12.6561	0.310477	0.21422
12.8006	12.6566	0.311356	0.216857
12.801	12.6571	0.311062	0.216183
12.8015	12.6576	0.308807	0.21515
12.802	12.658	0.310601	0.213087
12.8024	12.6585	0.314025	0.215701
12.8029	12.659	0.311982	0.215408
12.8034	12.6594	0.311146	0.216321
12.8039	12.6599	0.312882	0.218965
12.8043	12.6604	0.313359	0.218433
12.8048	12.6608	0.313841	0.219074
12.8053	12.6613	0.312533	0.220666
12.8057	12.6618	0.314149	0.224074
12.8062	12.6622	0.314224	0.225997
12.8067	12.6627	0.31225	0.225408
12.8072	12.6632	0.313933	0.226503
12.8076	12.6636	0.313953	0.23019
12.8081	12.6641	0.313651	0.232549
12.8086	12.6646	0.313703	0.234734
12.8091	12.6651	0.314597	0.234459
12.8095	12.6655	0.314853	0.235455
12.81	12.666	0.314347	0.238435
12.8105	12.6665	0.316133	0.243922
12.8109	12.667	0.313439	0.24272
12.8114	12.6674	0.314457	0.243306
12.8119	12.6679	0.317067	0.246774
12.8124	12.6684	0.314626	0.247831
12.8128	12.6689	0.313638	0.250449
12.8133	12.6693	0.317369	0.254331
12.8138	12.6698	0.315978	0.255137
12.8142	12.6702	0.313812	0.254482
12.8147	12.6707	0.315219	0.259029
12.8152	12.6712	0.318307	0.262631
12.8157	12.6717	0.315272	0.261557
12.8161	12.6721	0.314182	0.262042
12.8166	12.6726	0.317466	0.264872
12.8171	12.6731	0.315996	0.266763
12.8176	12.6735	0.31347	0.266922
12.818	12.674	0.315007	0.270667
12.8185	12.6745	0.315896	0.269334
12.819	12.675	0.317258	0.269247
12.8194	12.6754	0.316198	0.271906
12.8199	12.6759	0.316496	0.273374
12.8204	12.6764	0.315429	0.273484
12.8209	12.6769	0.316219	0.271895
12.8213	12.6774	0.317987	0.275516
12.8218	12.6778	0.31516	0.274197
12.8223	12.6783	0.315031	0.273688
12.8227	12.6788	0.316614	0.274558
12.8232	12.6792	0.318596	0.273662
12.8237	12.6797	0.316353	0.268642
12.8242	12.6802	0.317163	0.269412
12.8246	12.6807	0.318691	0.270719
12.8251	12.6811	0.317823	0.266877
12.8256	12.6816	0.316943	0.262434
12.8261	12.6821	0.319823	0.261806
12.8265	12.6825	0.31707	0.259342
12.827	12.683	0.314297	0.256658
12.8275	12.6835	0.315643	0.255574
12.8279	12.6839	0.315989	0.2501
12.8284	12.6844	0.317948	0.248771
12.8289	12.6849	0.315521	0.246598
12.8294	12.6854	0.315723	0.245983
12.8298	12.6859	0.315434	0.240878
12.8303	12.6863	0.315226	0.237644
12.8308	12.6868	0.320608	0.234953
12.8312	12.6873	0.317424	0.230095
12.8317	12.6878	0.318677	0.229807
12.8322	12.6883	0.318896	0.227252
12.8327	12.6887	0.317217	0.221931
12.8331	12.6892	0.320448	0.22001
12.8336	12.6896	0.320861	0.220724
12.8341	12.6901	0.319648	0.221427
12.8346	12.6906	0.31607	0.221156
12.835	12.6911	0.317812	0.221959
12.8355	12.6915	0.320703	0.224733
12.836	12.692	0.317427	0.228288
12.8364	12.6924	0.318663	0.233843
12.8369	12.6929	0.319656	0.239188
12.8374	12.6934	0.318429	0.241718
12.8379	12.6938	0.319674	0.245715
12.8383	12.6943	0.320041	0.250789
12.8388	12.6948	0.318907	0.255863
12.8393	12.6953	0.317489	0.256011
12.8397	12.6957	0.318395	0.257067
12.8402	12.6962	0.321429	0.259289
12.8407	12.6967	0.319241	0.258417
12.8412	12.6972	0.318602	0.259118
12.8416	12.6977	0.31725	0.256631
12.8421	12.6981	0.31778	0.252974
12.8426	12.6986	0.320479	0.250908
12.8431	12.699	0.31812	0.249361
12.8435	12.6995	0.316548	0.245636
12.844	12.7	0.318375	0.241556
12.8445	12.7004	0.316598	0.237002
12.8449	12.7009	0.320595	0.23546
12.8454	12.7014	0.31832	0.231659
12.8459	12.7019	0.317623	0.229251
12.8464	12.7023	0.318034	0.226128
12.8468	12.7028	0.318173	0.22528
12.8473	12.7033	0.320261	0.223778
12.8478	12.7037	0.318623	0.226204
12.8482	12.7042	0.319987	0.229019
12.8487	12.7047	0.316008	0.231781
12.8492	12.7052	0.318042	0.235619
12.8497	12.7057	0.322514	0.245562
12.8501	12.7062	0.321721	0.254747
12.8506	12.7066	0.318395	0.262468
12.8511	12.7071	0.318774	0.272427
12.8516	12.7076	0.32135	0.284844
12.852	12.7081	0.321327	0.297269
12.8525	12.7085	0.320483	0.30977
12.853	12.709	0.319746	0.324136
12.8534	12.7095	0.318908	0.334608
12.8539	12.7099	0.318722	0.348138
12.8544	12.7104	0.321779	0.362574
12.8549	12.7109	0.31989	0.377182
12.8553	12.7114	0.319469	0.387131
12.8558	12.7118	0.319443	0.400012
12.8563	12.7123	0.319842	0.408762
12.8567	12.7128	0.321182	0.419702
12.8572	12.7132	0.320543	0.431504
12.8577	12.7137	0.321035	0.441313
12.8582	12.7142	0.318649	0.445535
12.8586	12.7146	0.320318	0.453597
12.8591	12.7151	0.322237	0.464316
12.8596	12.7156	0.321441	0.473033
12.8601	12.7161	0.319153	0.480441
12.8605	12.7166	0.318572	0.486809
12.861	12.717	0.321097	0.495109
12.8615	12.7175	0.320746	0.502694
12.8619	12.718	0.322232	0.510841
12.8624	12.7185	0.319122	0.509676
12.8629	12.7189	0.31892	0.50554
12.8634	12.7194	0.320365	0.504058
12.8638	12.7198	0.321394	0.50102
12.8643	12.7203	0.318679	0.498027
12.8648	12.7208	0.318874	0.496464
12.8652	12.7213	0.319407	0.497541
12.8657	12.7217	0.319579	0.502344
12.8662	12.7222	0.318445	0.512848
12.8667	12.7227	0.319522	0.538673
12.8671	12.7231	0.318721	0.568203
12.8676	12.7236	0.316213	0.600361
12.8681	12.7241	0.315856	0.649131
12.8686	12.7245	0.316763	0.703002
12.869	12.725	0.315682	0.751315
12.8695	12.7255	0.313378	0.792438
12.87	12.726	0.315506	0.827022
12.8704	12.7264	0.317191	0.856872
12.8709	12.7269	0.317019	0.876128
12.8714	12.7274	0.318613	0.900249
12.8719	12.7279	0.320368	0.915268
12.8723	12.7283	0.317843	0.912178
12.8728	12.7288	0.318061	0.917381
12.8733	12.7293	0.320078	0.928652
12.8737	12.7297	0.320601	0.935726
12.8742	12.7302	0.317153	0.938973
12.8747	12.7307	0.318647	0.940542
12.8752	12.7312	0.31788	0.943057
12.8756	12.7316	0.320014	0.946263
12.8761	12.7321	0.320769	0.953574
12.8766	12.7326	0.321044	0.953092
12.8771	12.733	0.31898	0.952868
12.8775	12.7335	0.317779	0.950947
12.878	12.734	0.32162	0.958739
12.8785	12.7345	0.320627	0.963469
12.8789	12.7349	0.319504	0.9607
12.8794	12.7354	0.319955	0.959619
12.8799	12.7359	0.322907	0.963214
12.8804	12.7364	0.321071	0.967166
12.8808	12.7369	0.31997	0.963295
12.8813	12.7374	0.320706	0.966883
12.8818	12.7378	0.319962	0.967558
12.8822	12.7383	0.318489	0.962247
12.8827	12.7388	0.319702	0.967783
12.8832	12.7392	0.32107	0.973078
12.8837	12.7397	0.320305	0.971223
12.8841	12.7402	0.320087	0.972275
12.8846	12.7406	0.322785	0.975627
12.8851	12.7411	0.322005	0.972604
12.8856	12.7416	0.320986	0.972944
12.886	12.7421	0.321248	0.980533
12.8865	12.7425	0.320954	0.972567
12.887	12.743	0.320202	0.972728
12.8874	12.7435	0.322909	0.975304
12.8879	12.7439	0.322103	0.97668
12.8884	12.7444	0.318725	0.971803
12.8889	12.7449	0.320949	0.973067
12.8893	12.7454	0.323125	0.978259
12.8898	12.7458	0.321648	0.972201
12.8903	12.7463	0.321273	0.980745
12.8907	12.7468	0.321795	0.983649
12.8912	12.7473	0.321637	0.9783
12.8917	12.7477	0.322185	0.977885
12.8922	12.7482	0.324907	0.986664
12.8926	12.7487	0.324204	0.983434
12.8931	12.7491	0.31976	0.975604
12.8936	12.7496	0.322865	0.981697
12.8941	12.7501	0.323169	0.979884
12.8945	12.7505	0.321851	0.978545
12.895	12.751	0.322263	0.982901
12.8955	12.7515	0.322579	0.985432
12.8959	12.752	0.321027	0.978832
12.8964	12.7524	0.322066	0.97932
12.8969	12.7529	0.322928	0.98314
12.8974	12.7533	0.323097	0.983493
12.8978	12.7538	0.319888	0.979099
12.8983	12.7543	0.320317	0.981045
12.8988	12.7548	0.323852	0.988505
