# 1304     AichiSR QXAFS
# Start     : 8.9544
# End       : 9.0544
# Dir       : Forward
# Points    : 300
# ScanTime  : 1.01549
# Date      : 13.04.23 22:22
# Ring Cur. : 25.5[mA]
12.7557	12.7557	0.402482	1.22767
12.7562	12.7552	0.400505	1.22662
12.7566	12.7548	0.40113	1.22253
12.7571	12.7543	0.402832	1.22566
12.7576	12.7538	0.40049	1.22379
12.7581	12.7533	0.400995	1.22572
12.7585	12.7529	0.400217	1.2255
12.759	12.7524	0.401183	1.22202
12.7595	12.752	0.403322	1.22203
12.7599	12.7515	0.402485	1.22284
12.7604	12.751	0.401405	1.22604
12.7609	12.7505	0.40141	1.22233
12.7614	12.7501	0.402066	1.21755
12.7618	12.7496	0.401084	1.22012
12.7623	12.7491	0.400909	1.22185
12.7628	12.7487	0.400657	1.2237
12.7632	12.7482	0.400671	1.22276
12.7637	12.7477	0.401653	1.22084
12.7642	12.7473	0.400873	1.21598
12.7647	12.7468	0.401165	1.22008
12.7651	12.7463	0.400584	1.22138
12.7656	12.7458	0.400729	1.21725
12.7661	12.7454	0.399396	1.21589
12.7666	12.7449	0.400424	1.2161
12.767	12.7444	0.400708	1.21858
12.7675	12.7439	0.400079	1.2184
12.768	12.7435	0.400657	1.2185
12.7684	12.743	0.400717	1.21414
12.7689	12.7425	0.402166	1.21377
12.7694	12.7421	0.401308	1.21447
12.7699	12.7416	0.399976	1.21373
12.7703	12.7411	0.400228	1.21148
12.7708	12.7406	0.39994	1.2095
12.7713	12.7402	0.401073	1.20798
12.7717	12.7397	0.399025	1.20946
12.7722	12.7392	0.398671	1.20883
12.7727	12.7388	0.399875	1.21009
12.7732	12.7383	0.398698	1.2055
12.7736	12.7378	0.399494	1.20499
12.7741	12.7374	0.400124	1.2096
12.7746	12.7369	0.399988	1.20662
12.7751	12.7364	0.397682	1.20631
12.7755	12.7359	0.397974	1.19844
12.776	12.7354	0.398493	1.20103
12.7765	12.735	0.399837	1.19958
12.7769	12.7345	0.397227	1.19916
12.7774	12.734	0.398593	1.19724
12.7779	12.7335	0.398479	1.19231
12.7784	12.733	0.398957	1.18865
12.7788	12.7326	0.398516	1.19186
12.7793	12.7321	0.398339	1.19023
12.7798	12.7317	0.397193	1.18652
12.7802	12.7312	0.396897	1.17761
12.7807	12.7307	0.398085	1.17538
12.7812	12.7302	0.39877	1.17486
12.7817	12.7297	0.395544	1.17215
12.7821	12.7293	0.397649	1.16685
12.7826	12.7288	0.396329	1.15931
12.7831	12.7284	0.397754	1.15187
12.7836	12.7279	0.396705	1.14668
12.784	12.7274	0.396303	1.13837
12.7845	12.7269	0.39634	1.12153
12.785	12.7265	0.394194	1.10444
12.7854	12.726	0.394056	1.08688
12.7859	12.7255	0.39285	1.05567
12.7864	12.725	0.39037	1.01683
12.7869	12.7245	0.390295	0.97111
12.7873	12.7241	0.390236	0.915309
12.7878	12.7236	0.392007	0.855002
12.7883	12.7231	0.395257	0.798528
12.7887	12.7227	0.394486	0.744304
12.7892	12.7222	0.395263	0.692936
12.7897	12.7218	0.396053	0.6541
12.7902	12.7213	0.396979	0.631495
12.7906	12.7208	0.395807	0.619758
12.7911	12.7203	0.394989	0.613805
12.7916	12.7199	0.395295	0.612314
12.7921	12.7194	0.394416	0.613249
12.7925	12.7189	0.395996	0.619177
12.793	12.7185	0.394399	0.625027
12.7935	12.718	0.393893	0.628117
12.7939	12.7175	0.39388	0.625977
12.7944	12.7171	0.394149	0.622506
12.7949	12.7166	0.396147	0.61768
12.7954	12.7161	0.395667	0.610466
12.7958	12.7156	0.392676	0.597624
12.7963	12.7151	0.394262	0.587505
12.7968	12.7147	0.392738	0.575484
12.7972	12.7142	0.394227	0.563807
12.7977	12.7137	0.395002	0.556214
12.7982	12.7132	0.39345	0.544442
12.7987	12.7128	0.39345	0.532017
12.7991	12.7123	0.393744	0.521765
12.7996	12.7118	0.393884	0.512456
12.8001	12.7114	0.394651	0.499849
12.8006	12.7109	0.391657	0.487404
12.801	12.7104	0.393633	0.468628
12.8015	12.7099	0.392763	0.453486
12.802	12.7095	0.397776	0.444319
12.8024	12.709	0.397028	0.428433
12.8029	12.7086	0.39328	0.408781
12.8034	12.7081	0.393602	0.389683
12.8039	12.7076	0.392737	0.37272
12.8043	12.7071	0.393287	0.3571
12.8048	12.7066	0.392885	0.343732
12.8053	12.7062	0.391619	0.330237
12.8057	12.7057	0.392022	0.319563
12.8062	12.7052	0.392894	0.305017
12.8067	12.7047	0.393215	0.296088
12.8072	12.7042	0.393122	0.292118
12.8076	12.7038	0.392786	0.285249
12.8081	12.7033	0.391711	0.279839
12.8086	12.7028	0.392966	0.275351
12.8091	12.7024	0.39349	0.276441
12.8095	12.7019	0.393203	0.278052
12.81	12.7014	0.391006	0.279103
12.8105	12.7009	0.392457	0.28131
12.8109	12.7005	0.39258	0.284188
12.8114	12.7	0.393614	0.2886
12.8119	12.6995	0.39202	0.293774
12.8124	12.6991	0.391224	0.300389
12.8128	12.6986	0.390793	0.30222
12.8133	12.6981	0.39231	0.306902
12.8138	12.6977	0.393267	0.31002
12.8142	12.6972	0.392035	0.315709
12.8147	12.6967	0.393076	0.31685
12.8152	12.6962	0.393938	0.319415
12.8157	12.6958	0.393288	0.316617
12.8161	12.6953	0.393289	0.318967
12.8166	12.6948	0.395169	0.319281
12.8171	12.6943	0.392612	0.315557
12.8176	12.6939	0.391735	0.310021
12.818	12.6934	0.393817	0.305976
12.8185	12.6929	0.393684	0.301726
12.819	12.6925	0.393528	0.298376
12.8194	12.692	0.392146	0.292839
12.8199	12.6915	0.395023	0.285652
12.8204	12.6911	0.394858	0.28042
12.8209	12.6906	0.395681	0.276448
12.8213	12.6901	0.394464	0.27498
12.8218	12.6897	0.394575	0.27245
12.8223	12.6892	0.393783	0.270813
12.8227	12.6887	0.3944	0.271027
12.8232	12.6883	0.392622	0.273084
12.8237	12.6878	0.395567	0.277596
12.8242	12.6873	0.393166	0.279705
12.8246	12.6868	0.393544	0.282043
12.8251	12.6864	0.394653	0.285832
12.8256	12.6859	0.39214	0.290356
12.8261	12.6854	0.393015	0.29538
12.8265	12.6849	0.392588	0.30052
12.827	12.6844	0.391853	0.301641
12.8275	12.684	0.393066	0.304271
12.8279	12.6835	0.392828	0.307243
12.8284	12.683	0.393427	0.313586
12.8289	12.6826	0.392344	0.315538
12.8294	12.6821	0.392825	0.318116
12.8298	12.6816	0.394564	0.319863
12.8303	12.6812	0.395012	0.324767
12.8308	12.6807	0.396269	0.328096
12.8312	12.6802	0.393687	0.331283
12.8317	12.6797	0.394645	0.331925
12.8322	12.6793	0.396623	0.335316
12.8327	12.6788	0.395417	0.336442
12.8331	12.6783	0.397438	0.340191
12.8336	12.6779	0.394702	0.341334
12.8341	12.6774	0.397527	0.340502
12.8346	12.6769	0.395397	0.339863
12.835	12.6764	0.39682	0.341235
12.8355	12.6759	0.397196	0.342847
12.836	12.6755	0.393906	0.342199
12.8364	12.675	0.395762	0.338361
12.8369	12.6745	0.39511	0.337555
12.8374	12.674	0.396331	0.336281
12.8379	12.6735	0.397032	0.337903
12.8383	12.6731	0.39367	0.334559
12.8388	12.6726	0.394297	0.333849
12.8393	12.6722	0.396745	0.332314
12.8397	12.6717	0.395838	0.330089
12.8402	12.6712	0.397181	0.330871
12.8407	12.6707	0.394316	0.328848
12.8412	12.6703	0.393222	0.324371
12.8416	12.6698	0.396677	0.322474
12.8421	12.6693	0.395508	0.320362
12.8426	12.6689	0.397052	0.319273
12.8431	12.6684	0.395501	0.316462
12.8435	12.6679	0.394947	0.313482
12.844	12.6675	0.395517	0.309411
12.8445	12.667	0.394762	0.308572
12.8449	12.6665	0.396778	0.308933
12.8454	12.666	0.395266	0.305266
12.8459	12.6656	0.396752	0.300657
12.8464	12.6651	0.396186	0.296157
12.8468	12.6646	0.395929	0.297007
12.8473	12.6641	0.395099	0.295354
12.8478	12.6637	0.394842	0.293747
12.8482	12.6632	0.395976	0.289486
12.8487	12.6627	0.395623	0.28714
12.8492	12.6623	0.396382	0.285988
12.8497	12.6618	0.396467	0.286302
12.8501	12.6613	0.394373	0.282322
12.8506	12.6609	0.394871	0.279351
12.8511	12.6604	0.396583	0.278965
12.8516	12.6599	0.3941	0.277188
12.852	12.6595	0.394934	0.27576
12.8525	12.659	0.39262	0.274926
12.853	12.6585	0.393637	0.272645
12.8534	12.6581	0.395377	0.270159
12.8539	12.6576	0.394308	0.271677
12.8544	12.6571	0.395181	0.273247
12.8549	12.6566	0.39422	0.27306
12.8553	12.6561	0.394475	0.271052
12.8558	12.6557	0.395272	0.271408
12.8563	12.6552	0.395069	0.274094
12.8567	12.6547	0.394493	0.27659
12.8572	12.6542	0.393797	0.27645
12.8577	12.6537	0.393573	0.278319
12.8582	12.6533	0.395211	0.279517
12.8586	12.6528	0.395513	0.28323
12.8591	12.6523	0.394985	0.286568
12.8596	12.6519	0.394569	0.288437
12.8601	12.6514	0.393331	0.28825
12.8605	12.6509	0.396405	0.292298
12.861	12.6504	0.396576	0.294087
12.8615	12.65	0.394921	0.298167
12.8619	12.6495	0.393403	0.29917
12.8624	12.649	0.394563	0.300171
12.8629	12.6486	0.395147	0.302623
12.8634	12.6481	0.394554	0.305327
12.8638	12.6476	0.393753	0.308879
12.8643	12.6472	0.392541	0.310274
12.8648	12.6467	0.391726	0.308511
12.8652	12.6462	0.393151	0.309784
12.8657	12.6457	0.389977	0.311484
12.8662	12.6452	0.391243	0.313187
12.8667	12.6447	0.389581	0.315107
12.8671	12.6443	0.389358	0.314916
12.8676	12.6438	0.393916	0.315723
12.8681	12.6433	0.391398	0.31776
12.8686	12.6429	0.392001	0.319542
12.869	12.6424	0.393313	0.320286
12.8695	12.642	0.393509	0.320505
12.87	12.6415	0.39393	0.319132
12.8704	12.641	0.392175	0.320438
12.8709	12.6405	0.393716	0.322464
12.8714	12.6401	0.392334	0.320288
12.8719	12.6396	0.392677	0.319046
12.8723	12.6391	0.395251	0.318491
12.8728	12.6387	0.393259	0.319466
12.8733	12.6382	0.392236	0.319407
12.8737	12.6377	0.392601	0.31859
12.8742	12.6373	0.391356	0.316746
12.8747	12.6368	0.392874	0.315738
12.8752	12.6363	0.393851	0.316705
12.8756	12.6358	0.391821	0.316395
12.8761	12.6354	0.392392	0.314252
12.8766	12.6349	0.391509	0.313597
12.8771	12.6344	0.393248	0.312748
12.8775	12.6339	0.391891	0.312428
12.878	12.6335	0.390927	0.313165
12.8785	12.633	0.392322	0.312493
12.8789	12.6325	0.392059	0.309359
12.8794	12.6321	0.394104	0.312213
12.8799	12.6316	0.392097	0.312322
12.8804	12.6311	0.392404	0.314076
12.8808	12.6306	0.389796	0.313067
12.8813	12.6302	0.391818	0.311283
12.8818	12.6297	0.392622	0.311674
12.8822	12.6292	0.390826	0.313194
12.8827	12.6288	0.390283	0.314415
12.8832	12.6283	0.390787	0.312754
12.8837	12.6278	0.390014	0.311865
12.8841	12.6274	0.392294	0.311773
12.8846	12.6269	0.391372	0.313204
12.8851	12.6264	0.390023	0.312272
12.8856	12.6259	0.390931	0.311373
12.886	12.6254	0.391322	0.309028
12.8865	12.6249	0.392545	0.309759
12.887	12.6245	0.390599	0.309417
12.8874	12.624	0.389709	0.309353
12.8879	12.6235	0.388747	0.308439
12.8884	12.623	0.389307	0.305781
12.8889	12.6226	0.392004	0.306036
12.8893	12.6221	0.390048	0.304757
12.8898	12.6217	0.389863	0.305354
12.8903	12.6212	0.389044	0.304454
12.8907	12.6207	0.389866	0.303359
12.8912	12.6202	0.391478	0.303131
12.8917	12.6197	0.390418	0.302638
12.8922	12.6193	0.389019	0.303456
12.8926	12.6188	0.387569	0.303057
12.8931	12.6184	0.388972	0.302018
12.8936	12.6179	0.389177	0.301405
12.8941	12.6174	0.389078	0.302279
12.8945	12.6169	0.388613	0.302823
12.895	12.6164	0.389692	0.301197
12.8955	12.616	0.389574	0.301592
12.8959	12.6155	0.390456	0.301888
12.8964	12.615	0.388465	0.301868
12.8969	12.6145	0.389802	0.303047
12.8974	12.6141	0.388328	0.300985
12.8978	12.6136	0.387476	0.298325
12.8983	12.6131	0.388484	0.298679
12.8988	12.6127	0.389521	0.299125
