# 1304     AichiSR QXAFS
# Start     : 8.9544
# End       : 9.0544
# Dir       : Forward
# Points    : 300
# ScanTime  : 1.01549
# Date      : 13.04.23 22:22
# Ring Cur. : 25.5[mA]
12.7557	12.7557	0.403722	1.22931
12.7562	12.7552	0.40554	1.22876
12.7566	12.7548	0.405292	1.23231
12.7571	12.7543	0.402604	1.22991
12.7576	12.7538	0.402845	1.22888
12.7581	12.7533	0.402612	1.22627
12.7585	12.7529	0.404787	1.22851
12.759	12.7524	0.403868	1.22992
12.7595	12.752	0.401866	1.22951
12.7599	12.7515	0.40228	1.227
12.7604	12.751	0.402878	1.2267
12.7609	12.7505	0.401396	1.22822
12.7614	12.7501	0.401294	1.22761
12.7618	12.7496	0.401722	1.22873
12.7623	12.7491	0.403487	1.22713
12.7628	12.7487	0.403374	1.22495
12.7632	12.7482	0.402928	1.22349
12.7637	12.7477	0.402955	1.22421
12.7642	12.7473	0.401611	1.22369
12.7647	12.7468	0.403643	1.22309
12.7651	12.7463	0.401806	1.22031
12.7656	12.7458	0.40368	1.21862
12.7661	12.7454	0.402494	1.223
12.7666	12.7449	0.401863	1.22556
12.767	12.7444	0.403082	1.22339
12.7675	12.7439	0.402582	1.22204
12.768	12.7435	0.403109	1.22083
12.7684	12.743	0.401944	1.2258
12.7689	12.7425	0.40063	1.22038
12.7694	12.7421	0.401936	1.22048
12.7699	12.7416	0.40137	1.217
12.7703	12.7411	0.401686	1.21916
12.7708	12.7406	0.402873	1.21972
12.7713	12.7402	0.400494	1.21626
12.7717	12.7397	0.401344	1.21389
12.7722	12.7392	0.401751	1.21292
12.7727	12.7388	0.401347	1.21508
12.7732	12.7383	0.401756	1.21458
12.7736	12.7378	0.399274	1.21419
12.7741	12.7374	0.400137	1.20887
12.7746	12.7369	0.401296	1.20983
12.7751	12.7364	0.400541	1.20672
12.7755	12.7359	0.401566	1.21111
12.776	12.7354	0.399825	1.20726
12.7765	12.735	0.400613	1.20387
12.7769	12.7345	0.400449	1.20362
12.7774	12.734	0.401715	1.19761
12.7779	12.7335	0.401143	1.19952
12.7784	12.733	0.399225	1.19797
12.7788	12.7326	0.400687	1.19311
12.7793	12.7321	0.401341	1.19457
12.7798	12.7317	0.401434	1.19053
12.7802	12.7312	0.400227	1.19001
12.7807	12.7307	0.400816	1.18615
12.7812	12.7302	0.399653	1.18141
12.7817	12.7297	0.400465	1.1775
12.7821	12.7293	0.400192	1.17364
12.7826	12.7288	0.400913	1.17295
12.7831	12.7284	0.398097	1.16317
12.7836	12.7279	0.398925	1.15023
12.784	12.7274	0.398386	1.1423
12.7845	12.7269	0.397562	1.1282
12.785	12.7265	0.397677	1.11377
12.7854	12.726	0.395126	1.09135
12.7859	12.7255	0.393376	1.05724
12.7864	12.725	0.392951	1.02141
12.7869	12.7245	0.39543	0.977485
12.7873	12.7241	0.394447	0.925479
12.7878	12.7236	0.394342	0.864274
12.7883	12.7231	0.395709	0.800362
12.7887	12.7227	0.397771	0.745559
12.7892	12.7222	0.398619	0.697389
12.7897	12.7218	0.398476	0.662217
12.7902	12.7213	0.39742	0.638385
12.7906	12.7208	0.397548	0.622728
12.7911	12.7203	0.398847	0.615346
12.7916	12.7199	0.400285	0.617228
12.7921	12.7194	0.398769	0.622487
12.7925	12.7189	0.397803	0.625245
12.793	12.7185	0.398264	0.629338
12.7935	12.718	0.39923	0.632434
12.7939	12.7175	0.399113	0.632336
12.7944	12.7171	0.398179	0.630152
12.7949	12.7166	0.397794	0.623488
12.7954	12.7161	0.396765	0.611712
12.7958	12.7156	0.397471	0.601961
12.7963	12.7151	0.398086	0.590863
12.7968	12.7147	0.399769	0.582149
12.7972	12.7142	0.397254	0.572148
12.7977	12.7137	0.397162	0.558987
12.7982	12.7132	0.399667	0.549647
12.7987	12.7128	0.398699	0.540368
12.7991	12.7123	0.397941	0.529768
12.7996	12.7118	0.397	0.516265
12.8001	12.7114	0.3974	0.500605
12.8006	12.7109	0.396684	0.486983
12.801	12.7104	0.397207	0.474387
12.8015	12.7099	0.39688	0.460209
12.802	12.7095	0.395951	0.442204
12.8024	12.709	0.397379	0.425205
12.8029	12.7085	0.398981	0.40975
12.8034	12.7081	0.397575	0.392838
12.8039	12.7076	0.397953	0.378062
12.8043	12.7071	0.39695	0.361318
12.8048	12.7066	0.396157	0.34592
12.8053	12.7062	0.398596	0.331991
12.8057	12.7057	0.397236	0.321643
12.8062	12.7052	0.396663	0.310912
12.8067	12.7047	0.395991	0.299816
12.8072	12.7042	0.395489	0.292108
12.8076	12.7038	0.397101	0.286328
12.8081	12.7033	0.394571	0.282444
12.8086	12.7028	0.394993	0.280473
12.8091	12.7024	0.394903	0.279595
12.8095	12.7019	0.392755	0.277357
12.81	12.7014	0.394694	0.280355
12.8105	12.7009	0.396069	0.284121
12.8109	12.7005	0.395364	0.28863
12.8114	12.7	0.395734	0.291421
12.8119	12.6995	0.394779	0.294846
12.8124	12.6991	0.395862	0.300158
12.8128	12.6986	0.39489	0.305278
12.8133	12.6981	0.395148	0.310314
12.8138	12.6977	0.394432	0.313678
12.8142	12.6972	0.394389	0.313924
12.8147	12.6967	0.394278	0.315914
12.8152	12.6962	0.393165	0.319371
12.8157	12.6958	0.392605	0.32032
12.8161	12.6953	0.392059	0.320641
12.8166	12.6948	0.394257	0.317692
12.8171	12.6943	0.392893	0.314991
12.8176	12.6939	0.393033	0.311679
12.818	12.6934	0.394068	0.307627
12.8185	12.6929	0.392912	0.303551
12.819	12.6925	0.391008	0.295067
12.8194	12.692	0.39297	0.290154
12.8199	12.6916	0.393916	0.285942
12.8204	12.6911	0.392208	0.282014
12.8209	12.6906	0.392409	0.275536
12.8213	12.6901	0.391341	0.271497
12.8218	12.6897	0.394066	0.270696
12.8223	12.6892	0.391135	0.270339
12.8227	12.6887	0.390771	0.270134
12.8232	12.6883	0.390203	0.272772
12.8237	12.6878	0.390466	0.272755
12.8242	12.6873	0.391926	0.276114
12.8246	12.6868	0.389792	0.281638
12.8251	12.6864	0.389431	0.286278
12.8256	12.6859	0.390241	0.288323
12.8261	12.6854	0.390168	0.291656
12.8265	12.6849	0.390467	0.296704
12.827	12.6844	0.389201	0.301681
12.8275	12.684	0.389903	0.30533
12.8279	12.6835	0.38799	0.306853
12.8284	12.683	0.38825	0.30712
12.8289	12.6826	0.390353	0.311105
12.8294	12.6821	0.390664	0.314491
12.8298	12.6816	0.389208	0.318157
12.8303	12.6812	0.389979	0.321544
12.8308	12.6807	0.389053	0.322674
12.8312	12.6802	0.394002	0.327278
12.8317	12.6797	0.39529	0.333614
12.8322	12.6793	0.392381	0.333309
12.8327	12.6788	0.390985	0.33358
12.8331	12.6783	0.39086	0.334298
12.8336	12.6779	0.391607	0.335857
12.8341	12.6774	0.390086	0.336064
12.8346	12.6769	0.389484	0.3377
12.835	12.6764	0.389446	0.337641
12.8355	12.6759	0.389983	0.335202
12.836	12.6755	0.391116	0.335457
12.8364	12.675	0.390268	0.33528
12.8369	12.6745	0.38947	0.335007
12.8374	12.674	0.387899	0.333652
12.8379	12.6735	0.388739	0.330857
12.8383	12.6731	0.390693	0.330481
12.8388	12.6726	0.391501	0.330203
12.8393	12.6722	0.388542	0.328968
12.8397	12.6717	0.3889	0.326165
12.8402	12.6712	0.388585	0.323007
12.8407	12.6707	0.392136	0.323553
12.8412	12.6703	0.388708	0.321263
12.8416	12.6698	0.391787	0.318906
12.8421	12.6693	0.389937	0.317209
12.8426	12.6689	0.390002	0.312656
12.8431	12.6684	0.391049	0.310763
12.8435	12.6679	0.390704	0.310958
12.844	12.6675	0.39162	0.30816
12.8445	12.667	0.390367	0.304155
12.8449	12.6665	0.390778	0.301391
12.8454	12.666	0.392412	0.299027
12.8459	12.6656	0.391392	0.29792
12.8464	12.6651	0.390179	0.296461
12.8468	12.6646	0.391991	0.29432
12.8473	12.6641	0.391008	0.290215
12.8478	12.6637	0.391572	0.289283
12.8482	12.6632	0.391769	0.288152
12.8487	12.6627	0.390595	0.285703
12.8492	12.6623	0.390272	0.283372
12.8497	12.6618	0.391315	0.28012
12.8501	12.6613	0.391757	0.278406
12.8506	12.6609	0.392319	0.278231
12.8511	12.6604	0.391692	0.277395
12.8516	12.6599	0.390724	0.274324
12.852	12.6594	0.389627	0.272492
12.8525	12.659	0.393107	0.271643
12.853	12.6585	0.391712	0.271111
12.8534	12.6581	0.390984	0.271714
12.8539	12.6576	0.390144	0.268511
12.8544	12.6571	0.390862	0.267761
12.8549	12.6566	0.391704	0.268875
12.8553	12.6561	0.39139	0.269438
12.8558	12.6557	0.391303	0.270217
12.8563	12.6552	0.391686	0.270373
12.8567	12.6547	0.390308	0.272661
12.8572	12.6542	0.391807	0.273939
12.8577	12.6537	0.392788	0.278523
12.8582	12.6533	0.392548	0.28028
12.8586	12.6528	0.392333	0.281931
12.8591	12.6523	0.391909	0.282019
12.8596	12.6519	0.392026	0.285776
12.8601	12.6514	0.39373	0.288003
12.8605	12.6509	0.392895	0.29215
12.861	12.6504	0.391537	0.292711
12.8615	12.65	0.39174	0.293348
12.8619	12.6495	0.392753	0.29713
12.8624	12.649	0.393559	0.302189
12.8629	12.6486	0.391537	0.304796
12.8634	12.6481	0.391763	0.304794
12.8638	12.6476	0.391786	0.305195
12.8643	12.6471	0.390527	0.306212
12.8648	12.6467	0.391255	0.30884
12.8652	12.6462	0.388818	0.309535
12.8657	12.6457	0.389573	0.311697
12.8662	12.6452	0.386703	0.311031
12.8667	12.6447	0.39018	0.312233
12.8671	12.6443	0.391452	0.315917
12.8676	12.6438	0.392042	0.317505
12.8681	12.6433	0.390764	0.317033
12.8686	12.6429	0.392245	0.317715
12.869	12.6424	0.392809	0.318979
12.8695	12.642	0.393496	0.321099
12.87	12.6415	0.392174	0.320788
12.8704	12.641	0.391832	0.320453
12.8709	12.6405	0.391835	0.319066
12.8714	12.6401	0.393524	0.318722
12.8719	12.6396	0.39358	0.319659
12.8723	12.6391	0.392338	0.319832
12.8728	12.6387	0.392865	0.318407
12.8733	12.6382	0.391559	0.316329
12.8737	12.6377	0.395008	0.317778
12.8742	12.6373	0.393918	0.318088
12.8747	12.6368	0.392102	0.317
12.8752	12.6363	0.391656	0.316552
12.8756	12.6358	0.392877	0.315125
12.8761	12.6354	0.393159	0.313591
12.8766	12.6349	0.394439	0.315096
12.8771	12.6344	0.391775	0.314919
12.8775	12.6339	0.390418	0.31212
12.878	12.6335	0.393204	0.311575
12.8785	12.633	0.393148	0.311902
12.8789	12.6325	0.392582	0.312731
12.8794	12.6321	0.391532	0.31263
12.8799	12.6316	0.392263	0.312718
12.8804	12.6311	0.392616	0.311034
12.8808	12.6306	0.392169	0.312563
12.8813	12.6302	0.395226	0.315658
12.8818	12.6297	0.39368	0.313969
12.8822	12.6292	0.39229	0.31395
12.8827	12.6288	0.392932	0.312526
12.8832	12.6283	0.394364	0.312726
12.8837	12.6278	0.391939	0.314942
12.8841	12.6273	0.391438	0.314269
12.8846	12.6269	0.391727	0.311796
12.8851	12.6264	0.391945	0.311456
12.8856	12.6259	0.39085	0.311117
12.886	12.6254	0.392053	0.312395
12.8865	12.625	0.390994	0.311353
12.887	12.6245	0.390695	0.309151
12.8874	12.624	0.391839	0.3085
12.8879	12.6235	0.392296	0.308311
12.8884	12.6231	0.392742	0.30896
12.8889	12.6226	0.391138	0.309171
12.8893	12.6221	0.390484	0.306589
12.8898	12.6217	0.390694	0.304758
12.8903	12.6212	0.392103	0.305636
12.8907	12.6207	0.39294	0.305932
12.8912	12.6202	0.38954	0.304797
12.8917	12.6197	0.390353	0.303812
12.8922	12.6193	0.391303	0.302461
12.8926	12.6188	0.390743	0.303895
12.8931	12.6184	0.392477	0.303973
12.8936	12.6179	0.389735	0.303788
12.8941	12.6174	0.39108	0.302803
12.8945	12.6169	0.389736	0.302788
12.895	12.6164	0.391722	0.303215
12.8955	12.616	0.392558	0.304955
12.8959	12.6155	0.38899	0.304012
12.8964	12.615	0.388981	0.303154
12.8969	12.6145	0.39036	0.302128
12.8974	12.6141	0.390106	0.302098
12.8978	12.6136	0.391368	0.302431
12.8983	12.6131	0.388856	0.301383
12.8988	12.6127	0.390521	0.30015
