# 1304     AichiSR QXAFS
# Start     : 8.9544
# End       : 9.0544
# Dir       : Forward
# Points    : 300
# ScanTime  : 1.01549
# Date      : 13.04.23 22:21
# Ring Cur. : 25.5[mA]
12.7557	12.7557	0.403203	1.23017
12.7562	12.7552	0.403555	1.23081
12.7566	12.7548	0.401559	1.22944
12.7571	12.7543	0.402856	1.22911
12.7576	12.7538	0.402468	1.2256
12.7581	12.7533	0.404385	1.22695
12.7585	12.7529	0.404391	1.22797
12.759	12.7524	0.402605	1.22921
12.7595	12.752	0.401776	1.22727
12.7599	12.7515	0.402544	1.22435
12.7604	12.751	0.403581	1.22897
12.7609	12.7505	0.40271	1.22662
12.7614	12.7501	0.40241	1.22533
12.7618	12.7496	0.402307	1.22297
12.7623	12.7491	0.402309	1.22245
12.7628	12.7487	0.402948	1.22391
12.7632	12.7482	0.403631	1.22564
12.7637	12.7477	0.402425	1.22583
12.7642	12.7473	0.403531	1.22249
12.7647	12.7468	0.404076	1.22276
12.7651	12.7463	0.402761	1.22407
12.7656	12.7458	0.401175	1.22329
12.7661	12.7454	0.401442	1.22397
12.7666	12.7449	0.402435	1.2206
12.767	12.7444	0.402043	1.218
12.7675	12.7439	0.401497	1.21649
12.768	12.7435	0.402032	1.22063
12.7684	12.743	0.40065	1.21995
12.7689	12.7425	0.400569	1.21562
12.7694	12.7421	0.402439	1.2172
12.7699	12.7416	0.401435	1.2172
12.7703	12.7411	0.402007	1.21895
12.7708	12.7406	0.400474	1.21734
12.7713	12.7402	0.401283	1.21456
12.7717	12.7397	0.40176	1.21298
12.7722	12.7392	0.399907	1.21064
12.7727	12.7388	0.401723	1.21453
12.7732	12.7383	0.398961	1.21252
12.7736	12.7378	0.399653	1.21004
12.7741	12.7374	0.400933	1.20834
12.7746	12.7369	0.401957	1.21124
12.7751	12.7364	0.401073	1.21048
12.7755	12.7359	0.39983	1.20805
12.776	12.7354	0.401121	1.20326
12.7765	12.735	0.402284	1.20325
12.7769	12.7345	0.401794	1.20144
12.7774	12.734	0.401475	1.20419
12.7779	12.7335	0.400221	1.20147
12.7784	12.733	0.399108	1.19522
12.7788	12.7326	0.399763	1.19543
12.7793	12.7321	0.400365	1.19225
12.7798	12.7317	0.40131	1.18893
12.7802	12.7312	0.398903	1.18798
12.7807	12.7307	0.399237	1.184
12.7812	12.7302	0.400736	1.17751
12.7817	12.7297	0.39875	1.17538
12.7821	12.7293	0.399516	1.1718
12.7826	12.7288	0.398944	1.16786
12.7831	12.7284	0.398962	1.15462
12.7836	12.7279	0.399721	1.15035
12.784	12.7274	0.398999	1.14244
12.7845	12.7269	0.396096	1.12985
12.785	12.7265	0.396282	1.11104
12.7854	12.726	0.395368	1.08797
12.7859	12.7255	0.39524	1.0577
12.7864	12.725	0.393761	1.01669
12.7869	12.7245	0.394018	0.976121
12.7873	12.7241	0.39237	0.919457
12.7878	12.7236	0.395207	0.853931
12.7883	12.7231	0.39545	0.799547
12.7887	12.7227	0.398352	0.745327
12.7892	12.7222	0.398022	0.696124
12.7897	12.7218	0.398415	0.661695
12.7902	12.7213	0.398104	0.63629
12.7906	12.7208	0.397075	0.622024
12.7911	12.7203	0.397891	0.616211
12.7916	12.7199	0.399049	0.616178
12.7921	12.7194	0.396882	0.617381
12.7925	12.7189	0.395074	0.623019
12.793	12.7185	0.399638	0.626668
12.7935	12.718	0.398932	0.630575
12.7939	12.7175	0.398825	0.632191
12.7944	12.7171	0.395837	0.630233
12.7949	12.7166	0.395878	0.619629
12.7954	12.7161	0.399397	0.610785
12.7958	12.7156	0.398297	0.6017
12.7963	12.7151	0.397038	0.591999
12.7968	12.7147	0.395149	0.581389
12.7972	12.7142	0.395543	0.566321
12.7977	12.7137	0.396915	0.557282
12.7982	12.7132	0.398133	0.546421
12.7987	12.7128	0.397393	0.538522
12.7991	12.7123	0.395682	0.528627
12.7996	12.7118	0.395744	0.513374
12.8001	12.7114	0.397774	0.499244
12.8006	12.7109	0.396442	0.488148
12.801	12.7104	0.396845	0.4759
12.8015	12.7099	0.395614	0.458701
12.802	12.7095	0.39496	0.440328
12.8024	12.709	0.396666	0.424409
12.8029	12.7085	0.396029	0.409248
12.8034	12.7081	0.396559	0.393366
12.8039	12.7076	0.395373	0.376066
12.8043	12.7071	0.394638	0.35915
12.8048	12.7066	0.397082	0.343132
12.8053	12.7062	0.395666	0.332582
12.8057	12.7057	0.396043	0.320364
12.8062	12.7052	0.394199	0.308888
12.8067	12.7047	0.394085	0.297889
12.8072	12.7042	0.395624	0.290534
12.8076	12.7038	0.396555	0.286406
12.8081	12.7033	0.393505	0.281527
12.8086	12.7028	0.39516	0.278442
12.8091	12.7024	0.394996	0.276772
12.8095	12.7019	0.394781	0.278449
12.81	12.7014	0.395233	0.280414
12.8105	12.7009	0.395921	0.284934
12.8109	12.7005	0.394987	0.287319
12.8114	12.7	0.392747	0.288608
12.8119	12.6995	0.395323	0.293999
12.8124	12.6991	0.393491	0.299394
12.8128	12.6986	0.394395	0.304811
12.8133	12.6981	0.394263	0.307779
12.8138	12.6977	0.393523	0.311328
12.8142	12.6972	0.39335	0.3135
12.8147	12.6967	0.392187	0.316779
12.8152	12.6962	0.393247	0.320623
12.8157	12.6958	0.391916	0.319528
12.8161	12.6953	0.391429	0.317139
12.8166	12.6948	0.394176	0.316684
12.8171	12.6943	0.393812	0.315328
12.8176	12.6939	0.392125	0.312081
12.818	12.6934	0.392967	0.307322
12.8185	12.6929	0.391215	0.29983
12.819	12.6925	0.393891	0.29562
12.8194	12.692	0.391617	0.290415
12.8199	12.6915	0.389868	0.285667
12.8204	12.6911	0.391806	0.280269
12.8209	12.6906	0.390594	0.273824
12.8213	12.6901	0.392582	0.269884
12.8218	12.6897	0.392086	0.270226
12.8223	12.6892	0.39139	0.270133
12.8227	12.6887	0.389753	0.269133
12.8232	12.6883	0.38916	0.269262
12.8237	12.6878	0.392221	0.272289
12.8242	12.6873	0.391858	0.277134
12.8246	12.6868	0.389421	0.280896
12.8251	12.6864	0.390569	0.285291
12.8256	12.6859	0.388279	0.287872
12.8261	12.6854	0.389135	0.292542
12.8265	12.6849	0.388835	0.296777
12.827	12.6844	0.387089	0.300182
12.8275	12.684	0.38884	0.302876
12.8279	12.6835	0.387094	0.303611
12.8284	12.683	0.391217	0.310558
12.8289	12.6826	0.392512	0.316183
12.8294	12.6821	0.38961	0.316314
12.8298	12.6816	0.388969	0.318235
12.8303	12.6811	0.38972	0.320013
12.8308	12.6807	0.391132	0.323967
12.8312	12.6802	0.391771	0.326719
12.8317	12.6797	0.388834	0.329194
12.8322	12.6793	0.388109	0.332921
12.8327	12.6788	0.390244	0.332809
12.8331	12.6783	0.389855	0.332357
12.8336	12.6779	0.389363	0.334963
12.8341	12.6774	0.389342	0.337094
12.8346	12.6769	0.388503	0.336017
12.835	12.6764	0.389835	0.335302
12.8355	12.6759	0.390893	0.33503
12.836	12.6755	0.391142	0.336305
12.8364	12.675	0.387919	0.33536
12.8369	12.6745	0.390133	0.33363
12.8374	12.674	0.388236	0.331
12.8379	12.6735	0.391216	0.331505
12.8383	12.6731	0.390014	0.330632
12.8388	12.6726	0.390173	0.330078
12.8393	12.6722	0.390294	0.32839
12.8397	12.6717	0.39056	0.325571
12.8402	12.6712	0.390209	0.323749
12.8407	12.6707	0.3918	0.323823
12.8412	12.6703	0.390201	0.32098
12.8416	12.6698	0.3902	0.317855
12.8421	12.6693	0.390488	0.315883
12.8426	12.6689	0.39162	0.313521
12.8431	12.6684	0.391026	0.313045
12.8435	12.6679	0.390349	0.311328
12.844	12.6675	0.392205	0.307143
12.8445	12.667	0.389802	0.303644
12.8449	12.6665	0.392902	0.301843
12.8454	12.666	0.392031	0.300918
12.8459	12.6656	0.390723	0.298421
12.8464	12.6651	0.389508	0.295659
12.8468	12.6646	0.39091	0.293205
12.8473	12.6641	0.3925	0.290275
12.8478	12.6637	0.392562	0.290232
12.8482	12.6632	0.39013	0.288573
12.8487	12.6627	0.390611	0.285563
12.8492	12.6623	0.391117	0.282976
12.8497	12.6618	0.393153	0.280562
12.8501	12.6613	0.391555	0.281039
12.8506	12.6609	0.391059	0.278478
12.8511	12.6604	0.390945	0.275301
12.8516	12.6599	0.392729	0.273139
12.852	12.6594	0.392681	0.272122
12.8525	12.659	0.391603	0.27292
12.853	12.6585	0.39037	0.271635
12.8534	12.6581	0.392172	0.269438
12.8539	12.6576	0.389855	0.268169
12.8544	12.6571	0.391652	0.268865
12.8549	12.6566	0.39179	0.269766
12.8553	12.6561	0.389784	0.269477
12.8558	12.6557	0.390873	0.271078
12.8563	12.6552	0.391454	0.270527
12.8567	12.6547	0.391798	0.27245
12.8572	12.6542	0.392763	0.276098
12.8577	12.6537	0.391031	0.277825
12.8582	12.6533	0.392645	0.278954
12.8586	12.6528	0.391453	0.279708
12.8591	12.6523	0.394405	0.282601
12.8596	12.6519	0.394005	0.285633
12.8601	12.6514	0.391118	0.289308
12.8605	12.6509	0.393342	0.28894
12.861	12.6504	0.392743	0.292121
12.8615	12.65	0.394012	0.29423
12.8619	12.6495	0.394524	0.299063
12.8624	12.649	0.392147	0.301503
12.8629	12.6486	0.392262	0.300516
12.8634	12.6481	0.392232	0.303524
12.8638	12.6476	0.391695	0.30499
12.8643	12.6471	0.391901	0.309955
12.8648	12.6467	0.389777	0.309019
12.8652	12.6462	0.388757	0.307599
12.8657	12.6457	0.388636	0.310004
12.8662	12.6452	0.389768	0.311285
12.8667	12.6447	0.389325	0.312493
12.8671	12.6443	0.388936	0.314603
12.8676	12.6438	0.389669	0.314452
12.8681	12.6433	0.389222	0.31445
12.8686	12.6429	0.390591	0.317298
12.869	12.6424	0.393095	0.319509
12.8695	12.642	0.391067	0.319376
12.87	12.6415	0.392668	0.317602
12.8704	12.641	0.394016	0.319763
12.8709	12.6405	0.393766	0.318827
12.8714	12.6401	0.392682	0.320189
12.8719	12.6396	0.39147	0.3213
12.8723	12.6391	0.393139	0.318369
12.8728	12.6387	0.39295	0.317936
12.8733	12.6382	0.392693	0.31758
12.8737	12.6377	0.392669	0.319309
12.8742	12.6373	0.390756	0.316927
12.8747	12.6368	0.391501	0.315556
12.8752	12.6363	0.39293	0.31403
12.8756	12.6358	0.393162	0.313094
12.8761	12.6354	0.392254	0.314341
12.8766	12.6349	0.389745	0.314849
12.8771	12.6344	0.392762	0.311443
12.8775	12.6339	0.391955	0.311171
12.878	12.6335	0.392684	0.310906
12.8785	12.633	0.393365	0.313435
12.8789	12.6325	0.391478	0.313322
12.8794	12.6321	0.391366	0.312056
12.8799	12.6316	0.393176	0.311196
12.8804	12.6311	0.392022	0.311322
12.8808	12.6306	0.391488	0.313865
12.8813	12.6302	0.391338	0.313386
12.8818	12.6297	0.39028	0.311596
12.8822	12.6292	0.39027	0.312861
12.8827	12.6288	0.392207	0.313675
12.8832	12.6283	0.391025	0.315339
12.8837	12.6278	0.390876	0.313643
12.8841	12.6273	0.390082	0.313258
12.8846	12.6269	0.392067	0.31193
12.8851	12.6264	0.391756	0.311414
12.8856	12.6259	0.391507	0.312602
12.886	12.6254	0.391408	0.31328
12.8865	12.625	0.391272	0.309103
12.887	12.6245	0.391508	0.308472
12.8874	12.624	0.39194	0.308672
12.8879	12.6235	0.391164	0.308852
12.8884	12.6231	0.388846	0.307916
12.8889	12.6226	0.389335	0.306584
12.8893	12.6221	0.390759	0.304462
12.8898	12.6217	0.390661	0.304908
12.8903	12.6212	0.390062	0.30672
12.8907	12.6207	0.391579	0.305771
12.8912	12.6202	0.390228	0.302976
12.8917	12.6197	0.391835	0.302464
12.8922	12.6193	0.390688	0.304385
12.8926	12.6188	0.390255	0.305702
12.8931	12.6183	0.388475	0.302963
12.8936	12.6179	0.390977	0.302416
12.8941	12.6174	0.390234	0.301445
12.8945	12.6169	0.389899	0.302136
12.895	12.6164	0.389971	0.303812
12.8955	12.616	0.389441	0.302729
12.8959	12.6155	0.39001	0.301649
12.8964	12.615	0.39116	0.302553
12.8969	12.6145	0.389272	0.301805
12.8974	12.6141	0.390426	0.302133
12.8978	12.6136	0.388154	0.302054
12.8983	12.6131	0.387365	0.2986
12.8988	12.6127	0.390536	0.297887
