# 1304     AichiSR QXAFS
# Start     : 8.9544
# End       : 9.0544
# Dir       : Forward
# Points    : 300
# ScanTime  : 1.01549
# Date      : 13.04.23 22:26
# Ring Cur. : 25.5[mA]
12.7557	12.7557	0.402599	1.23049
12.7562	12.7553	0.401551	1.22994
12.7566	12.7548	0.40122	1.22469
12.7571	12.7543	0.402382	1.22333
12.7576	12.7538	0.403123	1.22534
12.7581	12.7534	0.402307	1.22783
12.7585	12.7529	0.400178	1.22929
12.759	12.7524	0.402108	1.2232
12.7595	12.752	0.402907	1.22579
12.7599	12.7515	0.402734	1.22423
12.7604	12.751	0.40128	1.22405
12.7609	12.7506	0.400656	1.22444
12.7614	12.7501	0.402251	1.22164
12.7618	12.7496	0.403124	1.22381
12.7623	12.7492	0.401596	1.22186
12.7628	12.7487	0.401187	1.22323
12.7632	12.7482	0.402976	1.2255
12.7637	12.7478	0.403168	1.22221
12.7642	12.7473	0.402787	1.22038
12.7647	12.7468	0.401806	1.22249
12.7651	12.7463	0.401305	1.22445
12.7656	12.7459	0.402092	1.22156
12.7661	12.7454	0.402139	1.21757
12.7666	12.7449	0.403166	1.21986
12.767	12.7444	0.401777	1.22068
12.7675	12.744	0.400515	1.21922
12.768	12.7435	0.401508	1.21758
12.7684	12.743	0.401212	1.21406
12.7689	12.7426	0.401552	1.21619
12.7694	12.7421	0.4018	1.21904
12.7699	12.7416	0.399946	1.218
12.7703	12.7412	0.400357	1.21577
12.7708	12.7407	0.401406	1.21522
12.7713	12.7402	0.403821	1.21571
12.7717	12.7397	0.400264	1.21612
12.7722	12.7393	0.400516	1.21551
12.7727	12.7388	0.401639	1.2138
12.7732	12.7383	0.399507	1.20981
12.7736	12.7379	0.401247	1.20907
12.7741	12.7374	0.401397	1.21138
12.7746	12.7369	0.400364	1.21048
12.7751	12.7364	0.400235	1.20597
12.7755	12.7359	0.399673	1.20414
12.776	12.7355	0.402926	1.20569
12.7765	12.735	0.399926	1.20416
12.7769	12.7345	0.39973	1.20342
12.7774	12.734	0.398474	1.20034
12.7779	12.7335	0.399531	1.19591
12.7784	12.7331	0.400741	1.19493
12.7788	12.7326	0.400102	1.19486
12.7793	12.7321	0.399304	1.19594
12.7798	12.7317	0.399458	1.18887
12.7802	12.7312	0.399288	1.18365
12.7807	12.7307	0.400401	1.18405
12.7812	12.7302	0.399532	1.17904
12.7817	12.7298	0.397976	1.17677
12.7821	12.7293	0.397819	1.17207
12.7826	12.7288	0.398287	1.16275
12.7831	12.7284	0.399054	1.15802
12.7836	12.7279	0.398739	1.15126
12.784	12.7274	0.397779	1.14474
12.7845	12.727	0.397048	1.12763
12.785	12.7265	0.396017	1.10905
12.7854	12.726	0.39675	1.08834
12.7859	12.7255	0.395678	1.06149
12.7864	12.7251	0.391643	1.02193
12.7869	12.7246	0.391534	0.974207
12.7873	12.7241	0.392409	0.917773
12.7878	12.7236	0.394244	0.854676
12.7883	12.7232	0.3963	0.795604
12.7887	12.7227	0.395722	0.742212
12.7892	12.7222	0.39566	0.693473
12.7897	12.7218	0.396156	0.655831
12.7902	12.7213	0.397885	0.634984
12.7906	12.7208	0.397991	0.62215
12.7911	12.7204	0.396365	0.615457
12.7916	12.7199	0.398512	0.61475
12.7921	12.7194	0.396662	0.616932
12.7925	12.719	0.398035	0.621235
12.793	12.7185	0.398707	0.626706
12.7935	12.718	0.397426	0.631614
12.7939	12.7176	0.396573	0.630616
12.7944	12.7171	0.396136	0.624897
12.7949	12.7166	0.397163	0.620746
12.7954	12.7161	0.396419	0.612866
12.7958	12.7156	0.395261	0.601458
12.7963	12.7152	0.396085	0.589276
12.7968	12.7147	0.396197	0.575532
12.7972	12.7142	0.396815	0.566062
12.7977	12.7137	0.396333	0.559509
12.7982	12.7133	0.39641	0.551162
12.7987	12.7128	0.39677	0.538031
12.7991	12.7123	0.394891	0.52477
12.7996	12.7119	0.396532	0.514289
12.8001	12.7114	0.397342	0.503516
12.8006	12.7109	0.393937	0.489724
12.801	12.7104	0.396028	0.471352
12.8015	12.71	0.395467	0.455237
12.802	12.7095	0.39608	0.440636
12.8024	12.709	0.397026	0.426132
12.8029	12.7086	0.394558	0.410105
12.8034	12.7081	0.396016	0.391176
12.8039	12.7076	0.39498	0.374929
12.8043	12.7071	0.397178	0.359072
12.8048	12.7067	0.396177	0.346084
12.8053	12.7062	0.395315	0.334411
12.8057	12.7057	0.39533	0.319556
12.8062	12.7052	0.395979	0.307488
12.8067	12.7047	0.395195	0.299697
12.8072	12.7043	0.393764	0.292046
12.8076	12.7038	0.394617	0.286896
12.8081	12.7033	0.396116	0.280596
12.8086	12.7028	0.395709	0.276744
12.8091	12.7024	0.394977	0.277971
12.8095	12.7019	0.39539	0.278943
12.81	12.7015	0.393998	0.28193
12.8105	12.701	0.395658	0.282537
12.8109	12.7005	0.395944	0.286451
12.8114	12.7	0.394055	0.290009
12.8119	12.6996	0.394839	0.296054
12.8124	12.6991	0.39336	0.301834
12.8128	12.6986	0.393391	0.303747
12.8133	12.6982	0.394183	0.307499
12.8138	12.6977	0.394384	0.311664
12.8142	12.6972	0.394316	0.316222
12.8147	12.6967	0.391801	0.318404
12.8152	12.6963	0.393809	0.318397
12.8157	12.6958	0.394521	0.319422
12.8161	12.6953	0.392893	0.318953
12.8166	12.6948	0.392599	0.318469
12.8171	12.6944	0.393222	0.316628
12.8176	12.6939	0.392566	0.311375
12.818	12.6934	0.393458	0.305841
12.8185	12.693	0.3952	0.302036
12.819	12.6925	0.394516	0.297489
12.8194	12.692	0.390812	0.29147
12.8199	12.6916	0.393237	0.284683
12.8204	12.6911	0.393938	0.2792
12.8209	12.6906	0.393068	0.274536
12.8213	12.6901	0.393284	0.273594
12.8218	12.6897	0.391395	0.271192
12.8223	12.6892	0.393103	0.269163
12.8227	12.6888	0.391814	0.269276
12.8232	12.6883	0.392143	0.272037
12.8237	12.6878	0.392204	0.276564
12.8242	12.6873	0.390783	0.277685
12.8246	12.6869	0.391429	0.280463
12.8251	12.6864	0.393033	0.284591
12.8256	12.6859	0.389878	0.289978
12.8261	12.6854	0.390229	0.294784
12.8265	12.6849	0.389196	0.297463
12.827	12.6845	0.388172	0.298912
12.8275	12.684	0.389461	0.303011
12.8279	12.6835	0.390361	0.30614
12.8284	12.683	0.389375	0.310367
12.8289	12.6826	0.387255	0.312119
12.8294	12.6821	0.388767	0.314742
12.8298	12.6817	0.390079	0.317556
12.8303	12.6812	0.389165	0.321601
12.8308	12.6807	0.390429	0.325481
12.8312	12.6802	0.389593	0.328407
12.8317	12.6797	0.389797	0.329316
12.8322	12.6793	0.3914	0.330587
12.8327	12.6788	0.391331	0.333074
12.8331	12.6784	0.390454	0.336662
12.8336	12.6779	0.389223	0.336372
12.8341	12.6774	0.388767	0.335333
12.8346	12.6769	0.390573	0.335544
12.835	12.6764	0.389253	0.335258
12.8355	12.676	0.388674	0.336583
12.836	12.6755	0.390398	0.334512
12.8364	12.675	0.387571	0.333102
12.8369	12.6745	0.389168	0.333164
12.8374	12.674	0.390257	0.33327
12.8379	12.6736	0.390005	0.331559
12.8383	12.6731	0.387214	0.330195
12.8388	12.6726	0.388471	0.327612
12.8393	12.6722	0.390768	0.326657
12.8397	12.6717	0.388326	0.325128
12.8402	12.6712	0.390494	0.324424
12.8407	12.6708	0.387266	0.322838
12.8412	12.6703	0.388498	0.318362
12.8416	12.6698	0.389112	0.316432
12.8421	12.6694	0.389275	0.316277
12.8426	12.6689	0.388255	0.313657
12.8431	12.6684	0.386715	0.311271
12.8435	12.668	0.386597	0.306916
12.844	12.6675	0.388954	0.304835
12.8445	12.667	0.387575	0.302436
12.8449	12.6665	0.388732	0.300531
12.8454	12.6661	0.388114	0.298231
12.8459	12.6656	0.38707	0.293595
12.8464	12.6651	0.389925	0.292577
12.8468	12.6646	0.392475	0.295096
12.8473	12.6642	0.389731	0.291069
12.8478	12.6637	0.386484	0.286055
12.8482	12.6632	0.387267	0.284359
12.8487	12.6628	0.388134	0.281697
12.8492	12.6623	0.387597	0.280245
12.8497	12.6618	0.386547	0.278498
12.8501	12.6614	0.387303	0.275859
12.8506	12.6609	0.386471	0.272659
12.8511	12.6604	0.38895	0.270988
12.8516	12.6599	0.387601	0.271281
12.852	12.6595	0.386446	0.269795
12.8525	12.659	0.386586	0.268151
12.853	12.6585	0.384337	0.26606
12.8534	12.6581	0.387128	0.264657
12.8539	12.6576	0.387165	0.266068
12.8544	12.6571	0.386462	0.267722
12.8549	12.6566	0.386303	0.265956
12.8553	12.6562	0.384307	0.26483
12.8558	12.6557	0.38633	0.266513
12.8563	12.6552	0.386749	0.267619
12.8567	12.6547	0.387202	0.270628
12.8572	12.6542	0.386115	0.270517
12.8577	12.6538	0.387549	0.271797
12.8582	12.6533	0.388762	0.27487
12.8586	12.6528	0.388094	0.277225
12.8591	12.6524	0.388088	0.279736
12.8596	12.6519	0.386234	0.282092
12.8601	12.6514	0.388292	0.283065
12.8605	12.651	0.389434	0.28621
12.861	12.6505	0.389456	0.289259
12.8615	12.65	0.387899	0.293199
12.8619	12.6495	0.388625	0.295033
12.8624	12.6491	0.387154	0.294955
12.8629	12.6486	0.389787	0.298671
12.8634	12.6481	0.387885	0.300386
12.8638	12.6477	0.386671	0.302911
12.8643	12.6472	0.385508	0.303864
12.8648	12.6467	0.385177	0.303886
12.8652	12.6462	0.385605	0.306487
12.8657	12.6457	0.384647	0.307857
12.8662	12.6453	0.38391	0.309266
12.8667	12.6448	0.385115	0.309305
12.8671	12.6443	0.38409	0.309882
12.8676	12.6438	0.386807	0.310945
12.8681	12.6434	0.386749	0.313597
12.8686	12.6429	0.386149	0.315343
12.869	12.6424	0.387436	0.31637
12.8695	12.642	0.387843	0.315065
12.87	12.6415	0.390505	0.316381
12.8704	12.641	0.388567	0.3168
12.8709	12.6405	0.387092	0.317738
12.8714	12.6401	0.388628	0.315866
12.8719	12.6396	0.389267	0.315481
12.8723	12.6392	0.389748	0.314761
12.8728	12.6387	0.389027	0.315328
12.8733	12.6382	0.388474	0.315491
12.8737	12.6378	0.387189	0.314115
12.8742	12.6373	0.387682	0.311263
12.8747	12.6368	0.38904	0.311523
12.8752	12.6363	0.387686	0.312982
12.8756	12.6359	0.388531	0.312794
12.8761	12.6354	0.388031	0.310664
12.8766	12.6349	0.388299	0.309957
12.8771	12.6344	0.390427	0.309054
12.8775	12.634	0.389837	0.309997
12.878	12.6335	0.388939	0.311389
12.8785	12.633	0.387352	0.308605
12.8789	12.6326	0.388449	0.308526
12.8794	12.6321	0.390783	0.308747
12.8799	12.6316	0.389088	0.310277
12.8804	12.6312	0.387973	0.311575
12.8808	12.6307	0.388751	0.309841
12.8813	12.6302	0.387796	0.309637
12.8818	12.6297	0.388591	0.309384
12.8822	12.6293	0.388553	0.310773
12.8827	12.6288	0.387119	0.310946
12.8832	12.6283	0.387724	0.310499
12.8837	12.6279	0.389004	0.309517
12.8841	12.6274	0.389873	0.309523
12.8846	12.6269	0.389477	0.310585
12.8851	12.6264	0.38839	0.310954
12.8856	12.6259	0.387942	0.307726
12.886	12.6255	0.388126	0.306893
12.8865	12.625	0.387857	0.307873
12.887	12.6245	0.389638	0.309669
12.8874	12.624	0.38833	0.307307
12.8879	12.6235	0.388217	0.306846
12.8884	12.6231	0.38845	0.303495
12.8889	12.6226	0.390323	0.30489
12.8893	12.6221	0.389552	0.305638
12.8898	12.6217	0.387739	0.303727
12.8903	12.6212	0.388028	0.302337
12.8907	12.6207	0.388905	0.301721
12.8912	12.6202	0.389728	0.302513
12.8917	12.6198	0.388491	0.302064
12.8922	12.6193	0.386995	0.30312
12.8926	12.6188	0.388348	0.301444
12.8931	12.6184	0.387635	0.299492
12.8936	12.6179	0.388984	0.301039
12.8941	12.6174	0.38828	0.303671
12.8945	12.6169	0.38713	0.302609
12.895	12.6165	0.38719	0.301436
12.8955	12.616	0.389861	0.299926
12.8959	12.6155	0.388908	0.300233
12.8964	12.615	0.38853	0.302892
12.8969	12.6146	0.386179	0.300539
12.8974	12.6141	0.388643	0.299223
12.8978	12.6136	0.38765	0.298111
12.8983	12.6132	0.387266	0.297872
12.8988	12.6127	0.388513	0.299436
