# 1304     AichiSR QXAFS
# Start     : 8.9544
# End       : 9.0544
# Dir       : Forward
# Points    : 300
# ScanTime  : 1.01549
# Date      : 13.04.23 22:21
# Ring Cur. : 25.5[mA]
12.7557	12.7557	0.401634	1.2242
12.7562	12.7552	0.401	1.22159
12.7566	12.7548	0.401611	1.22439
12.7571	12.7543	0.401907	1.22586
12.7576	12.7538	0.400242	1.22584
12.7581	12.7533	0.400971	1.22322
12.7585	12.7529	0.399904	1.22368
12.759	12.7524	0.401629	1.22292
12.7595	12.752	0.402629	1.22434
12.7599	12.7515	0.400032	1.22426
12.7604	12.751	0.401514	1.21784
12.7609	12.7505	0.401648	1.21939
12.7614	12.7501	0.39961	1.22045
12.7618	12.7496	0.401794	1.22439
12.7623	12.7491	0.399812	1.2217
12.7628	12.7487	0.401156	1.21843
12.7632	12.7482	0.401273	1.21712
12.7637	12.7477	0.401298	1.21695
12.7642	12.7473	0.401007	1.2218
12.7647	12.7468	0.400697	1.22001
12.7651	12.7463	0.399328	1.21366
12.7656	12.7458	0.40066	1.21289
12.7661	12.7454	0.400276	1.21664
12.7666	12.7449	0.400191	1.21996
12.767	12.7444	0.399731	1.21854
12.7675	12.7439	0.399865	1.21555
12.768	12.7435	0.400521	1.21472
12.7684	12.743	0.401481	1.21482
12.7689	12.7425	0.401043	1.21679
12.7694	12.7421	0.398606	1.21558
12.7699	12.7416	0.399379	1.2092
12.7703	12.7411	0.399346	1.20825
12.7708	12.7406	0.401278	1.2082
12.7713	12.7402	0.400262	1.21346
12.7717	12.7397	0.398047	1.21093
12.7722	12.7392	0.399284	1.20603
12.7727	12.7388	0.400602	1.20544
12.7732	12.7383	0.400314	1.20517
12.7736	12.7378	0.400852	1.20752
12.7741	12.7374	0.397537	1.20793
12.7746	12.7369	0.398642	1.20044
12.7751	12.7364	0.400121	1.19698
12.7755	12.7359	0.398444	1.20017
12.776	12.7354	0.398847	1.20388
12.7765	12.735	0.396877	1.19842
12.7769	12.7345	0.397733	1.19352
12.7774	12.734	0.398858	1.19381
12.7779	12.7335	0.397324	1.19291
12.7784	12.733	0.399231	1.19159
12.7788	12.7326	0.39737	1.18851
12.7793	12.7321	0.398226	1.18493
12.7798	12.7317	0.39646	1.18395
12.7802	12.7312	0.396749	1.18028
12.7807	12.7307	0.397801	1.17802
12.7812	12.7302	0.395457	1.17507
12.7817	12.7297	0.395747	1.1629
12.7821	12.7293	0.397573	1.16282
12.7826	12.7288	0.39681	1.15999
12.7831	12.7284	0.396678	1.15305
12.7836	12.7279	0.395013	1.14544
12.784	12.7274	0.394491	1.13142
12.7845	12.7269	0.394947	1.11997
12.785	12.7265	0.394797	1.10466
12.7854	12.726	0.394739	1.08403
12.7859	12.7255	0.390675	1.0507
12.7864	12.725	0.389851	1.01141
12.7869	12.7245	0.390949	0.963461
12.7873	12.7241	0.390758	0.9125
12.7878	12.7236	0.391553	0.854912
12.7883	12.7231	0.391396	0.792018
12.7887	12.7227	0.394028	0.734761
12.7892	12.7222	0.397058	0.689899
12.7897	12.7218	0.394408	0.655896
12.7902	12.7213	0.394919	0.633858
12.7906	12.7208	0.393394	0.619411
12.7911	12.7203	0.393885	0.609885
12.7916	12.7199	0.395111	0.610044
12.7921	12.7194	0.394826	0.613056
12.7925	12.7189	0.393939	0.619845
12.793	12.7185	0.393943	0.622352
12.7935	12.718	0.393176	0.625647
12.7939	12.7175	0.394367	0.625798
12.7944	12.717	0.395354	0.6232
12.7949	12.7166	0.394999	0.620545
12.7954	12.7161	0.393846	0.60877
12.7958	12.7156	0.394004	0.595763
12.7963	12.7151	0.394342	0.58313
12.7968	12.7147	0.3954	0.573913
12.7972	12.7142	0.393811	0.565298
12.7977	12.7137	0.393675	0.554387
12.7982	12.7132	0.391775	0.540965
12.7987	12.7128	0.393048	0.532645
12.7991	12.7123	0.393384	0.522904
12.7996	12.7118	0.395518	0.511712
12.8001	12.7114	0.390665	0.49768
12.8006	12.7109	0.390031	0.481925
12.801	12.7104	0.395154	0.4707
12.8015	12.7099	0.395937	0.459861
12.802	12.7095	0.393298	0.441069
12.8024	12.709	0.392047	0.422526
12.8029	12.7085	0.391958	0.402997
12.8034	12.7081	0.393374	0.386391
12.8039	12.7076	0.392609	0.373093
12.8043	12.7071	0.394327	0.360245
12.8048	12.7066	0.392467	0.344159
12.8053	12.7062	0.390611	0.326786
12.8057	12.7057	0.39423	0.315934
12.8062	12.7052	0.391849	0.306486
12.8067	12.7047	0.392546	0.298794
12.8072	12.7042	0.391337	0.29125
12.8076	12.7038	0.391796	0.281621
12.8081	12.7033	0.391647	0.277329
12.8086	12.7028	0.391332	0.27608
12.8091	12.7024	0.39244	0.277131
12.8095	12.7019	0.391705	0.277236
12.81	12.7014	0.390557	0.278209
12.8105	12.7009	0.393261	0.280104
12.8109	12.7005	0.392153	0.285394
12.8114	12.7	0.39233	0.291527
12.8119	12.6995	0.39225	0.294488
12.8124	12.6991	0.391234	0.297216
12.8128	12.6986	0.393468	0.302173
12.8133	12.6981	0.392264	0.306772
12.8138	12.6977	0.394484	0.312638
12.8142	12.6972	0.393383	0.314916
12.8147	12.6967	0.391722	0.315329
12.8152	12.6962	0.392514	0.315631
12.8157	12.6958	0.392845	0.31888
12.8161	12.6953	0.393158	0.319105
12.8166	12.6948	0.392843	0.31857
12.8171	12.6943	0.393271	0.31369
12.8176	12.6939	0.395093	0.311174
12.818	12.6934	0.39401	0.307844
12.8185	12.6929	0.394531	0.304169
12.819	12.6925	0.393272	0.297607
12.8194	12.692	0.393271	0.288839
12.8199	12.6915	0.393721	0.285258
12.8204	12.6911	0.393841	0.282429
12.8209	12.6906	0.393109	0.277057
12.8213	12.6901	0.392935	0.273437
12.8218	12.6897	0.391835	0.270313
12.8223	12.6892	0.393891	0.26885
12.8227	12.6887	0.394309	0.271806
12.8232	12.6883	0.394187	0.274284
12.8237	12.6878	0.393495	0.275434
12.8242	12.6873	0.393133	0.276338
12.8246	12.6868	0.39485	0.282785
12.8251	12.6864	0.394831	0.285393
12.8256	12.6859	0.393574	0.291822
12.8261	12.6854	0.391294	0.294555
12.8265	12.6849	0.391445	0.298365
12.827	12.6844	0.392603	0.30096
12.8275	12.684	0.391602	0.30738
12.8279	12.6835	0.392017	0.31018
12.8284	12.683	0.390578	0.312053
12.8289	12.6826	0.392131	0.314461
12.8294	12.6821	0.393418	0.316822
12.8298	12.6816	0.393795	0.321276
12.8303	12.6811	0.392225	0.3253
12.8308	12.6807	0.394169	0.328979
12.8312	12.6802	0.394301	0.329318
12.8317	12.6797	0.397154	0.332193
12.8322	12.6793	0.395224	0.336226
12.8327	12.6788	0.394835	0.338823
12.8331	12.6783	0.395735	0.338969
12.8336	12.6779	0.394179	0.338556
12.8341	12.6774	0.39639	0.339337
12.8346	12.6769	0.396597	0.341529
12.835	12.6764	0.395939	0.341381
12.8355	12.6759	0.393418	0.340203
12.836	12.6755	0.394277	0.338058
12.8364	12.675	0.395349	0.338627
12.8369	12.6745	0.395198	0.338622
12.8374	12.674	0.395968	0.339227
12.8379	12.6735	0.395408	0.336817
12.8383	12.6731	0.395533	0.333596
12.8388	12.6726	0.396857	0.334053
12.8393	12.6722	0.39678	0.333296
12.8397	12.6717	0.395569	0.332604
12.8402	12.6712	0.395154	0.330288
12.8407	12.6707	0.394026	0.327374
12.8412	12.6703	0.396698	0.323494
12.8416	12.6698	0.395357	0.322198
12.8421	12.6693	0.395468	0.321303
12.8426	12.6689	0.394899	0.318014
12.8431	12.6684	0.395532	0.314282
12.8435	12.6679	0.39778	0.312225
12.844	12.6675	0.396312	0.311721
12.8445	12.667	0.394821	0.309115
12.8449	12.6665	0.395596	0.305579
12.8454	12.666	0.394623	0.303004
12.8459	12.6656	0.395457	0.301188
12.8464	12.6651	0.39603	0.299537
12.8468	12.6646	0.395772	0.298477
12.8473	12.6641	0.39559	0.293759
12.8478	12.6637	0.395627	0.290232
12.8482	12.6632	0.395771	0.289137
12.8487	12.6627	0.396254	0.288711
12.8492	12.6623	0.396105	0.28744
12.8497	12.6618	0.393735	0.284661
12.8501	12.6613	0.395629	0.28099
12.8506	12.6609	0.395597	0.27843
12.8511	12.6604	0.394938	0.27963
12.8516	12.6599	0.394844	0.278066
12.852	12.6595	0.393468	0.275007
12.8525	12.659	0.395703	0.272805
12.853	12.6585	0.395399	0.271827
12.8534	12.6581	0.395566	0.2735
12.8539	12.6576	0.393436	0.273562
12.8544	12.6571	0.394117	0.27044
12.8549	12.6566	0.393613	0.269864
12.8553	12.6561	0.395161	0.270476
12.8558	12.6557	0.395471	0.273846
12.8563	12.6552	0.394864	0.27498
12.8567	12.6547	0.393758	0.275177
12.8572	12.6542	0.393286	0.275206
12.8577	12.6537	0.395595	0.277892
12.8582	12.6533	0.395446	0.281061
12.8586	12.6528	0.394236	0.284053
12.8591	12.6524	0.394027	0.284016
12.8596	12.6519	0.395263	0.285468
12.8601	12.6514	0.395364	0.289216
12.8605	12.6509	0.394846	0.292035
12.861	12.6504	0.394779	0.29553
12.8615	12.65	0.394787	0.295295
12.8619	12.6495	0.393052	0.296394
12.8624	12.649	0.395181	0.300848
12.8629	12.6486	0.394434	0.304001
12.8634	12.6481	0.392208	0.305114
12.8638	12.6476	0.392266	0.306943
12.8643	12.6471	0.393402	0.308077
12.8648	12.6467	0.392523	0.308107
12.8652	12.6462	0.392059	0.311425
12.8657	12.6457	0.39142	0.313322
12.8662	12.6452	0.388563	0.311819
12.8667	12.6447	0.389904	0.313957
12.8671	12.6443	0.390372	0.314546
12.8676	12.6438	0.390639	0.317345
12.8681	12.6433	0.391563	0.319147
12.8686	12.6429	0.390854	0.318245
12.869	12.6424	0.392858	0.317376
12.8695	12.6419	0.394686	0.320291
12.87	12.6415	0.394315	0.321703
12.8704	12.641	0.393566	0.322368
12.8709	12.6405	0.393356	0.320117
12.8714	12.6401	0.391815	0.318846
12.8719	12.6396	0.391606	0.318518
12.8723	12.6391	0.393812	0.321042
12.8728	12.6387	0.391608	0.320088
12.8733	12.6382	0.39354	0.317893
12.8737	12.6377	0.393048	0.315986
12.8742	12.6373	0.391689	0.317387
12.8747	12.6368	0.39249	0.316623
12.8752	12.6363	0.390689	0.315631
12.8756	12.6358	0.391184	0.314827
12.8761	12.6353	0.391004	0.312676
12.8766	12.6349	0.390651	0.311785
12.8771	12.6344	0.393134	0.313592
12.8775	12.6339	0.391168	0.313156
12.878	12.6335	0.390292	0.311877
12.8785	12.633	0.391858	0.31075
12.8789	12.6325	0.392398	0.311448
12.8794	12.6321	0.392369	0.311726
12.8799	12.6316	0.390648	0.313374
12.8804	12.6311	0.391744	0.312143
12.8808	12.6306	0.391939	0.31102
12.8813	12.6302	0.391524	0.310933
12.8818	12.6297	0.389932	0.311837
12.8822	12.6292	0.390666	0.312684
12.8827	12.6288	0.389941	0.311745
12.8832	12.6283	0.391633	0.311123
12.8837	12.6278	0.390478	0.311254
12.8841	12.6273	0.391578	0.314042
12.8846	12.6269	0.390806	0.312655
12.8851	12.6264	0.389416	0.311031
12.8856	12.6259	0.391342	0.309991
12.886	12.6254	0.391304	0.309957
12.8865	12.6249	0.39146	0.311121
12.887	12.6245	0.389255	0.309565
12.8874	12.624	0.390407	0.307349
12.8879	12.6235	0.39145	0.306284
12.8884	12.6231	0.38928	0.304629
12.8889	12.6226	0.390354	0.306714
12.8893	12.6221	0.388527	0.305351
12.8898	12.6217	0.389542	0.304214
12.8903	12.6212	0.39018	0.3024
12.8907	12.6207	0.388681	0.303153
12.8912	12.6202	0.389413	0.303646
12.8917	12.6197	0.387753	0.302996
12.8922	12.6193	0.387903	0.301818
12.8926	12.6188	0.390635	0.300313
12.8931	12.6183	0.388682	0.30101
12.8936	12.6179	0.389523	0.303797
12.8941	12.6174	0.387848	0.303645
12.8945	12.6169	0.388637	0.301814
12.895	12.6164	0.389072	0.300626
12.8955	12.616	0.388083	0.301513
12.8959	12.6155	0.389264	0.301759
12.8964	12.615	0.387222	0.301263
12.8969	12.6145	0.387663	0.299626
12.8974	12.6141	0.389048	0.29961
12.8978	12.6136	0.388664	0.297883
12.8983	12.6131	0.388217	0.300244
12.8988	12.6127	0.386398	0.299304
