# 1304     AichiSR QXAFS
# Start     : 8.9544
# End       : 9.0544
# Dir       : Forward
# Points    : 300
# ScanTime  : 1.01549
# Date      : 13.04.23 22:28
# Ring Cur. : 25.4[mA]
12.7557	12.7558	0.399188	1.21919
12.7562	12.7553	0.399351	1.21638
12.7566	12.7548	0.400149	1.21576
12.7571	12.7543	0.398525	1.2201
12.7576	12.7538	0.398909	1.22007
12.7581	12.7534	0.398291	1.21486
12.7585	12.7529	0.400154	1.21295
12.759	12.7525	0.400374	1.21638
12.7595	12.752	0.399114	1.21652
12.7599	12.7515	0.397124	1.21508
12.7604	12.7511	0.398407	1.21276
12.7609	12.7506	0.398416	1.21166
12.7614	12.7501	0.39821	1.21334
12.7618	12.7496	0.398682	1.2142
12.7623	12.7492	0.398602	1.2153
12.7628	12.7487	0.397419	1.21183
12.7632	12.7483	0.397694	1.21017
12.7637	12.7478	0.399068	1.21199
12.7642	12.7473	0.398502	1.21239
12.7647	12.7468	0.397072	1.21184
12.7651	12.7464	0.397514	1.20898
12.7656	12.7459	0.396604	1.20616
12.7661	12.7454	0.400038	1.20497
12.7666	12.7449	0.398826	1.2113
12.767	12.7444	0.396859	1.20884
12.7675	12.744	0.395562	1.20481
12.768	12.7435	0.398182	1.20382
12.7684	12.743	0.398041	1.2072
12.7689	12.7426	0.397414	1.20633
12.7694	12.7421	0.39545	1.20591
12.7699	12.7416	0.395174	1.20397
12.7703	12.7412	0.396397	1.19846
12.7708	12.7407	0.395228	1.20019
12.7713	12.7402	0.397508	1.20118
12.7717	12.7397	0.395552	1.20033
12.7722	12.7393	0.396529	1.19508
12.7727	12.7388	0.396914	1.19849
12.7732	12.7384	0.396807	1.19846
12.7736	12.7379	0.397756	1.19822
12.7741	12.7374	0.39696	1.19616
12.7746	12.7369	0.394922	1.1926
12.7751	12.7364	0.395573	1.18773
12.7755	12.736	0.39405	1.1895
12.776	12.7355	0.396176	1.19087
12.7765	12.735	0.393328	1.18671
12.7769	12.7345	0.393545	1.18577
12.7774	12.734	0.396094	1.18162
12.7779	12.7336	0.395107	1.18019
12.7784	12.7331	0.394553	1.18068
12.7788	12.7326	0.394609	1.18082
12.7793	12.7322	0.392967	1.1761
12.7798	12.7317	0.39363	1.16838
12.7802	12.7312	0.39397	1.1666
12.7807	12.7307	0.395306	1.16823
12.7812	12.7303	0.392041	1.16402
12.7817	12.7298	0.39187	1.15518
12.7821	12.7293	0.394138	1.14995
12.7826	12.7289	0.393274	1.14638
12.7831	12.7284	0.392128	1.14221
12.7836	12.7279	0.391751	1.13513
12.784	12.7274	0.391096	1.11942
12.7845	12.727	0.391153	1.10588
12.785	12.7265	0.39168	1.09145
12.7854	12.726	0.389933	1.07034
12.7859	12.7255	0.387231	1.04347
12.7864	12.7251	0.386873	1.00104
12.7869	12.7246	0.386735	0.957432
12.7873	12.7241	0.388257	0.903448
12.7878	12.7236	0.388501	0.84489
12.7883	12.7232	0.389449	0.789191
12.7887	12.7227	0.389599	0.727369
12.7892	12.7222	0.389155	0.677977
12.7897	12.7218	0.387929	0.642565
12.7902	12.7213	0.392398	0.623817
12.7906	12.7208	0.389928	0.612292
12.7911	12.7204	0.389981	0.603522
12.7916	12.7199	0.392164	0.603894
12.7921	12.7194	0.394646	0.6143
12.7925	12.719	0.391845	0.616293
12.793	12.7185	0.389467	0.617499
12.7935	12.718	0.390604	0.620305
12.7939	12.7176	0.391145	0.619349
12.7944	12.7171	0.389382	0.615093
12.7949	12.7166	0.391734	0.612875
12.7954	12.7161	0.389129	0.603357
12.7958	12.7157	0.389092	0.589855
12.7963	12.7152	0.390006	0.577826
12.7968	12.7147	0.389182	0.567585
12.7972	12.7142	0.390349	0.560214
12.7977	12.7137	0.389822	0.550089
12.7982	12.7133	0.388831	0.538524
12.7987	12.7128	0.390151	0.526905
12.7991	12.7123	0.389845	0.515196
12.7996	12.7119	0.389491	0.509222
12.8001	12.7114	0.389651	0.495545
12.8006	12.7109	0.388046	0.478908
12.801	12.7105	0.390999	0.463065
12.8015	12.71	0.391335	0.451123
12.802	12.7095	0.390919	0.436568
12.8024	12.7091	0.389489	0.420387
12.8029	12.7086	0.390486	0.402646
12.8034	12.7081	0.391128	0.384875
12.8039	12.7076	0.391622	0.370194
12.8043	12.7072	0.391353	0.357629
12.8048	12.7067	0.390324	0.34279
12.8053	12.7062	0.390196	0.326794
12.8057	12.7057	0.390973	0.314759
12.8062	12.7052	0.39122	0.305326
12.8067	12.7048	0.391964	0.297705
12.8072	12.7043	0.390174	0.289864
12.8076	12.7038	0.391447	0.281551
12.8081	12.7033	0.392728	0.277327
12.8086	12.7029	0.392037	0.277049
12.8091	12.7024	0.390655	0.277508
12.8095	12.7019	0.391303	0.27778
12.81	12.7015	0.390211	0.276279
12.8105	12.701	0.392582	0.28023
12.8109	12.7005	0.392895	0.28516
12.8114	12.7	0.392355	0.290763
12.8119	12.6996	0.390651	0.295152
12.8124	12.6991	0.391238	0.298501
12.8128	12.6987	0.392523	0.302453
12.8133	12.6982	0.39238	0.305679
12.8138	12.6977	0.392962	0.311658
12.8142	12.6972	0.390985	0.313036
12.8147	12.6968	0.391555	0.314944
12.8152	12.6963	0.392692	0.316304
12.8157	12.6958	0.392954	0.318533
12.8161	12.6953	0.392895	0.317854
12.8166	12.6949	0.391986	0.317673
12.8171	12.6944	0.392649	0.314003
12.8176	12.6939	0.392372	0.310433
12.818	12.6934	0.39189	0.30536
12.8185	12.693	0.393066	0.302274
12.819	12.6925	0.392916	0.295926
12.8194	12.6921	0.391526	0.289223
12.8199	12.6916	0.392976	0.282801
12.8204	12.6911	0.39306	0.281392
12.8209	12.6906	0.393562	0.275295
12.8213	12.6902	0.393486	0.273451
12.8218	12.6897	0.392149	0.270645
12.8223	12.6892	0.39379	0.267892
12.8227	12.6888	0.392217	0.269486
12.8232	12.6883	0.392626	0.273587
12.8237	12.6878	0.393017	0.275017
12.8242	12.6874	0.390687	0.27693
12.8246	12.6869	0.392366	0.28077
12.8251	12.6864	0.39134	0.285051
12.8256	12.6859	0.391034	0.292236
12.8261	12.6854	0.391112	0.294694
12.8265	12.685	0.391827	0.298284
12.827	12.6845	0.390198	0.300491
12.8275	12.684	0.391226	0.305268
12.8279	12.6835	0.391945	0.31096
12.8284	12.6831	0.391854	0.311795
12.8289	12.6826	0.391865	0.31351
12.8294	12.6821	0.393272	0.317144
12.8298	12.6817	0.392979	0.319853
12.8303	12.6812	0.392578	0.324427
12.8308	12.6807	0.394137	0.327172
12.8312	12.6802	0.392686	0.328358
12.8317	12.6798	0.393509	0.331145
12.8322	12.6793	0.392462	0.333893
12.8327	12.6788	0.394697	0.338972
12.8331	12.6784	0.393633	0.338875
12.8336	12.6779	0.392329	0.337022
12.8341	12.6774	0.395051	0.339297
12.8346	12.6769	0.393657	0.340011
12.835	12.6765	0.392294	0.340473
12.8355	12.676	0.39278	0.338165
12.836	12.6755	0.391604	0.336218
12.8364	12.675	0.394008	0.337145
12.8369	12.6745	0.392603	0.336255
12.8374	12.6741	0.393587	0.336936
12.8379	12.6736	0.393062	0.336663
12.8383	12.6731	0.393577	0.333417
12.8388	12.6727	0.393871	0.332405
12.8393	12.6722	0.394321	0.331558
12.8397	12.6717	0.392875	0.330125
12.8402	12.6713	0.393706	0.327622
12.8407	12.6708	0.392981	0.324753
12.8412	12.6703	0.393686	0.322206
12.8416	12.6698	0.393319	0.321527
12.8421	12.6694	0.392677	0.320915
12.8426	12.6689	0.394257	0.31712
12.8431	12.6685	0.393416	0.312642
12.8435	12.668	0.394103	0.311294
12.844	12.6675	0.393136	0.310146
12.8445	12.667	0.391913	0.307386
12.8449	12.6666	0.393901	0.303923
12.8454	12.6661	0.393341	0.301087
12.8459	12.6656	0.393508	0.297007
12.8464	12.6651	0.392219	0.297418
12.8468	12.6646	0.39344	0.295889
12.8473	12.6642	0.392583	0.292699
12.8478	12.6637	0.39229	0.289606
12.8482	12.6632	0.39436	0.287905
12.8487	12.6628	0.392984	0.287461
12.8492	12.6623	0.392892	0.286275
12.8497	12.6619	0.393942	0.28419
12.8501	12.6614	0.39278	0.278568
12.8506	12.6609	0.392855	0.278368
12.8511	12.6604	0.392481	0.276383
12.8516	12.66	0.391661	0.276206
12.852	12.6595	0.392044	0.274386
12.8525	12.659	0.391291	0.270327
12.853	12.6586	0.393224	0.268955
12.8534	12.6581	0.392729	0.270357
12.8539	12.6576	0.391001	0.270564
12.8544	12.6571	0.39253	0.270227
12.8549	12.6567	0.392731	0.268048
12.8553	12.6562	0.392321	0.269315
12.8558	12.6557	0.39166	0.271706
12.8563	12.6552	0.390961	0.272587
12.8567	12.6547	0.39153	0.272833
12.8572	12.6543	0.391461	0.272602
12.8577	12.6538	0.394066	0.276721
12.8582	12.6533	0.39183	0.278932
12.8586	12.6529	0.391315	0.280647
12.8591	12.6524	0.392226	0.283632
12.8596	12.6519	0.392001	0.284006
12.8601	12.6515	0.39118	0.286243
12.8605	12.651	0.390902	0.291107
12.861	12.6505	0.391889	0.293959
12.8615	12.65	0.390334	0.294112
12.8619	12.6495	0.389728	0.295689
12.8624	12.6491	0.391962	0.298307
12.8629	12.6486	0.391953	0.301965
12.8634	12.6481	0.390568	0.304633
12.8638	12.6477	0.389357	0.305076
12.8643	12.6472	0.388482	0.305892
12.8648	12.6467	0.39049	0.306651
12.8652	12.6462	0.387846	0.308908
12.8657	12.6457	0.386636	0.311608
12.8662	12.6453	0.386633	0.310731
12.8667	12.6448	0.385351	0.30893
12.8671	12.6443	0.387676	0.311045
12.8676	12.6438	0.386881	0.314129
12.8681	12.6434	0.388541	0.315199
12.8686	12.6429	0.389007	0.315016
12.869	12.6424	0.389814	0.315609
12.8695	12.642	0.390463	0.316435
12.87	12.6415	0.389985	0.317984
12.8704	12.641	0.389971	0.319455
12.8709	12.6406	0.389665	0.318261
12.8714	12.6401	0.388266	0.315417
12.8719	12.6396	0.39099	0.316085
12.8723	12.6392	0.390408	0.317158
12.8728	12.6387	0.388269	0.317822
12.8733	12.6382	0.388898	0.315046
12.8737	12.6378	0.38996	0.313739
12.8742	12.6373	0.389512	0.313578
12.8747	12.6368	0.387471	0.314275
12.8752	12.6363	0.387838	0.312737
12.8756	12.6359	0.386911	0.311056
12.8761	12.6354	0.387048	0.309694
12.8766	12.6349	0.389462	0.310622
12.8771	12.6344	0.387542	0.310104
12.8775	12.634	0.385488	0.309023
12.878	12.6335	0.388333	0.308987
12.8785	12.633	0.389516	0.307876
12.8789	12.6326	0.387904	0.308588
12.8794	12.6321	0.387878	0.308658
12.8799	12.6316	0.387587	0.309793
12.8804	12.6312	0.387883	0.308738
12.8808	12.6307	0.388036	0.307703
12.8813	12.6302	0.388665	0.308889
12.8818	12.6297	0.389023	0.311046
12.8822	12.6293	0.386164	0.310447
12.8827	12.6288	0.386562	0.310165
12.8832	12.6283	0.385106	0.3091
12.8837	12.6279	0.388155	0.308856
12.8841	12.6274	0.386037	0.309037
12.8846	12.6269	0.386192	0.311265
12.8851	12.6264	0.385687	0.308019
12.8856	12.626	0.385813	0.306781
12.886	12.6255	0.387742	0.307932
12.8865	12.625	0.386258	0.307338
12.887	12.6245	0.385067	0.308118
12.8874	12.624	0.386152	0.306159
12.8879	12.6236	0.386897	0.303317
12.8884	12.6231	0.387097	0.303278
12.8889	12.6226	0.387024	0.303873
12.8893	12.6222	0.385953	0.303986
12.8898	12.6217	0.386754	0.301692
12.8903	12.6212	0.385448	0.300623
12.8907	12.6207	0.386686	0.300041
12.8912	12.6203	0.386341	0.300906
12.8917	12.6198	0.382605	0.299533
12.8922	12.6193	0.384204	0.3002
12.8926	12.6189	0.3858	0.298847
12.8931	12.6184	0.38675	0.298561
12.8936	12.6179	0.3859	0.299427
12.8941	12.6174	0.38588	0.300099
12.8945	12.617	0.383631	0.298971
12.895	12.6165	0.385914	0.297828
12.8955	12.616	0.385069	0.298793
12.8959	12.6155	0.385376	0.299011
12.8964	12.615	0.38158	0.297709
12.8969	12.6146	0.383699	0.298149
12.8974	12.6141	0.385028	0.296421
12.8978	12.6136	0.38395	0.29548
12.8983	12.6132	0.383929	0.296841
12.8988	12.6127	0.384007	0.296996
