# 1304     AichiSR QXAFS
# Start     : 8.9544
# End       : 9.0544
# Dir       : Forward
# Points    : 300
# ScanTime  : 1.01549
# Date      : 13.04.23 22:24
# Ring Cur. : 25.5[mA]
12.7557	12.7557	0.404794	1.23103
12.7562	12.7552	0.401781	1.22808
12.7566	12.7548	0.40222	1.2247
12.7571	12.7543	0.404515	1.22711
12.7576	12.7538	0.404297	1.22905
12.7581	12.7533	0.401813	1.22782
12.7585	12.7529	0.402393	1.22815
12.759	12.7524	0.40183	1.22276
12.7595	12.752	0.403758	1.22463
12.7599	12.7515	0.402704	1.22708
12.7604	12.751	0.403321	1.22858
12.7609	12.7505	0.401154	1.22516
12.7614	12.7501	0.402013	1.22023
12.7618	12.7496	0.403433	1.22321
12.7623	12.7491	0.40264	1.22262
12.7628	12.7487	0.402774	1.22672
12.7632	12.7482	0.400927	1.22405
12.7637	12.7478	0.400937	1.22137
12.7642	12.7473	0.403111	1.22179
12.7647	12.7468	0.400804	1.22179
12.7651	12.7463	0.402036	1.22245
12.7656	12.7458	0.400118	1.21881
12.7661	12.7454	0.400615	1.21873
12.7666	12.7449	0.402424	1.21875
12.767	12.7444	0.40172	1.21844
12.7675	12.7439	0.400444	1.21937
12.768	12.7435	0.400199	1.2203
12.7684	12.743	0.401594	1.21479
12.7689	12.7425	0.402886	1.21488
12.7694	12.7421	0.401228	1.21613
12.7699	12.7416	0.399858	1.21873
12.7703	12.7411	0.399783	1.2144
12.7708	12.7407	0.399543	1.21251
12.7713	12.7402	0.401692	1.21322
12.7717	12.7397	0.400845	1.21336
12.7722	12.7392	0.401117	1.21201
12.7727	12.7388	0.400249	1.21223
12.7732	12.7383	0.401454	1.21035
12.7736	12.7378	0.402496	1.20986
12.7741	12.7374	0.40069	1.21291
12.7746	12.7369	0.398595	1.20909
12.7751	12.7364	0.398964	1.20595
12.7755	12.7359	0.399445	1.20223
12.776	12.7354	0.400774	1.20446
12.7765	12.735	0.401071	1.20187
12.7769	12.7345	0.400742	1.20199
12.7774	12.734	0.39967	1.20143
12.7779	12.7335	0.398045	1.19707
12.7784	12.7331	0.400855	1.19434
12.7788	12.7326	0.399249	1.1947
12.7793	12.7321	0.399175	1.19511
12.7798	12.7317	0.399188	1.18693
12.7802	12.7312	0.399295	1.18199
12.7807	12.7307	0.400197	1.18083
12.7812	12.7302	0.399226	1.18095
12.7817	12.7298	0.396393	1.17577
12.7821	12.7293	0.397352	1.17318
12.7826	12.7288	0.397211	1.16487
12.7831	12.7284	0.399319	1.15537
12.7836	12.7279	0.399278	1.15235
12.784	12.7274	0.3982	1.14318
12.7845	12.7269	0.396635	1.12701
12.785	12.7265	0.394792	1.10816
12.7854	12.726	0.396391	1.08774
12.7859	12.7255	0.394012	1.06032
12.7864	12.725	0.39273	1.02278
12.7869	12.7246	0.393134	0.976035
12.7873	12.7241	0.392247	0.918635
12.7878	12.7236	0.394646	0.858513
12.7883	12.7231	0.395517	0.801697
12.7887	12.7227	0.396823	0.746689
12.7892	12.7222	0.397405	0.695381
12.7897	12.7218	0.397317	0.657599
12.7902	12.7213	0.398515	0.636391
12.7906	12.7208	0.396626	0.622943
12.7911	12.7203	0.396314	0.617489
12.7916	12.7199	0.398496	0.615608
12.7921	12.7194	0.398769	0.617195
12.7925	12.7189	0.397677	0.621517
12.793	12.7185	0.39786	0.626434
12.7935	12.718	0.3966	0.631285
12.7939	12.7175	0.395466	0.630103
12.7944	12.7171	0.396201	0.626565
12.7949	12.7166	0.398335	0.621596
12.7954	12.7161	0.397081	0.612535
12.7958	12.7156	0.394991	0.603831
12.7963	12.7152	0.394873	0.589945
12.7968	12.7147	0.396026	0.578076
12.7972	12.7142	0.397739	0.567511
12.7977	12.7137	0.397732	0.558415
12.7982	12.7132	0.395013	0.550175
12.7987	12.7128	0.394549	0.535369
12.7991	12.7123	0.395583	0.525823
12.7996	12.7119	0.397064	0.51459
12.8001	12.7114	0.396297	0.503367
12.8006	12.7109	0.394896	0.490325
12.801	12.7104	0.395501	0.472913
12.8015	12.71	0.396078	0.456824
12.802	12.7095	0.396095	0.440986
12.8024	12.709	0.395507	0.425779
12.8029	12.7086	0.39475	0.408447
12.8034	12.7081	0.394993	0.391974
12.8039	12.7076	0.394708	0.373779
12.8043	12.7071	0.395888	0.359943
12.8048	12.7066	0.395613	0.345802
12.8053	12.7062	0.393252	0.334157
12.8057	12.7057	0.394913	0.319992
12.8062	12.7052	0.395058	0.307565
12.8067	12.7047	0.394838	0.298612
12.8072	12.7042	0.394314	0.293376
12.8076	12.7038	0.392961	0.286622
12.8081	12.7033	0.392486	0.279894
12.8086	12.7028	0.393706	0.278162
12.8091	12.7024	0.394106	0.277716
12.8095	12.7019	0.394507	0.277996
12.81	12.7014	0.39244	0.280652
12.8105	12.7009	0.393186	0.281961
12.8109	12.7005	0.393312	0.284639
12.8114	12.7	0.393493	0.288793
12.8119	12.6995	0.393553	0.296676
12.8124	12.6991	0.392392	0.299487
12.8128	12.6986	0.392235	0.301753
12.8133	12.6982	0.39228	0.306935
12.8138	12.6977	0.394526	0.310302
12.8142	12.6972	0.39347	0.314874
12.8147	12.6967	0.392373	0.316213
12.8152	12.6963	0.392993	0.317931
12.8157	12.6958	0.392489	0.317562
12.8161	12.6953	0.390792	0.317628
12.8166	12.6948	0.392965	0.318356
12.8171	12.6943	0.391529	0.313761
12.8176	12.6939	0.391224	0.310282
12.818	12.6934	0.392949	0.30459
12.8185	12.6929	0.392055	0.300876
12.819	12.6925	0.389278	0.295496
12.8194	12.692	0.389858	0.290903
12.8199	12.6916	0.39181	0.283269
12.8204	12.6911	0.391341	0.277316
12.8209	12.6906	0.391773	0.274766
12.8213	12.6901	0.393043	0.272934
12.8218	12.6897	0.390731	0.269946
12.8223	12.6892	0.390472	0.267136
12.8227	12.6887	0.391381	0.268716
12.8232	12.6883	0.394909	0.273952
12.8237	12.6878	0.393169	0.277284
12.8242	12.6873	0.390122	0.275345
12.8246	12.6868	0.389537	0.279831
12.8251	12.6864	0.390008	0.283165
12.8256	12.6859	0.389197	0.286882
12.8261	12.6854	0.389605	0.292264
12.8265	12.6849	0.388575	0.296059
12.827	12.6844	0.385102	0.299192
12.8275	12.684	0.390136	0.301983
12.8279	12.6835	0.388535	0.305394
12.8284	12.683	0.388061	0.310216
12.8289	12.6826	0.387988	0.312805
12.8294	12.6821	0.387575	0.313927
12.8298	12.6816	0.387552	0.316622
12.8303	12.6812	0.389477	0.32023
12.8308	12.6807	0.390352	0.32523
12.8312	12.6802	0.388263	0.326192
12.8317	12.6797	0.388748	0.32694
12.8322	12.6793	0.390214	0.330273
12.8327	12.6788	0.389699	0.333696
12.8331	12.6783	0.390901	0.336544
12.8336	12.6779	0.391238	0.336226
12.8341	12.6774	0.390529	0.336946
12.8346	12.6769	0.392362	0.336015
12.835	12.6764	0.390975	0.337291
12.8355	12.6759	0.389686	0.338802
12.836	12.6755	0.391072	0.33795
12.8364	12.675	0.389472	0.332898
12.8369	12.6745	0.391212	0.333972
12.8374	12.674	0.392553	0.334526
12.8379	12.6736	0.391098	0.334338
12.8383	12.6731	0.391124	0.331794
12.8388	12.6726	0.39134	0.330234
12.8393	12.6722	0.391135	0.327599
12.8397	12.6717	0.391154	0.327094
12.8402	12.6712	0.392067	0.32716
12.8407	12.6707	0.391598	0.324485
12.8412	12.6703	0.389505	0.321961
12.8416	12.6698	0.392425	0.319381
12.8421	12.6693	0.392447	0.318474
12.8426	12.6689	0.392888	0.31829
12.8431	12.6684	0.392554	0.315129
12.8435	12.668	0.39176	0.309728
12.844	12.6675	0.392637	0.308078
12.8445	12.667	0.392481	0.306342
12.8449	12.6665	0.391988	0.305094
12.8454	12.666	0.392953	0.302511
12.8459	12.6656	0.391542	0.296921
12.8464	12.6651	0.39213	0.295091
12.8468	12.6646	0.392667	0.29562
12.8473	12.6641	0.391906	0.293683
12.8478	12.6637	0.392027	0.290529
12.8482	12.6632	0.39245	0.28722
12.8487	12.6627	0.393278	0.28433
12.8492	12.6623	0.393629	0.284806
12.8497	12.6618	0.392899	0.283969
12.8501	12.6614	0.393102	0.280192
12.8506	12.6609	0.39105	0.277974
12.8511	12.6604	0.39478	0.27608
12.8516	12.6599	0.393721	0.274121
12.852	12.6595	0.392295	0.275287
12.8525	12.659	0.392348	0.272422
12.853	12.6585	0.391718	0.269959
12.8534	12.6581	0.393487	0.269878
12.8539	12.6576	0.391318	0.270025
12.8544	12.6571	0.391797	0.270269
12.8549	12.6566	0.391597	0.270645
12.8553	12.6561	0.392268	0.269178
12.8558	12.6557	0.391509	0.271496
12.8563	12.6552	0.393164	0.272781
12.8567	12.6547	0.394097	0.275833
12.8572	12.6542	0.392695	0.276802
12.8577	12.6538	0.392593	0.275838
12.8582	12.6533	0.3945	0.277841
12.8586	12.6528	0.393475	0.282443
12.8591	12.6524	0.393642	0.284766
12.8596	12.6519	0.393265	0.285331
12.8601	12.6514	0.392283	0.287626
12.8605	12.6509	0.394431	0.289324
12.861	12.6505	0.393736	0.293899
12.8615	12.65	0.394753	0.296357
12.8619	12.6495	0.394027	0.297956
12.8624	12.6491	0.391712	0.298576
12.8629	12.6486	0.394076	0.303133
12.8634	12.6481	0.393549	0.305349
12.8638	12.6476	0.392743	0.306711
12.8643	12.6472	0.391766	0.308021
12.8648	12.6467	0.390711	0.307142
12.8652	12.6462	0.389584	0.30828
12.8657	12.6457	0.38762	0.310173
12.8662	12.6452	0.389639	0.312806
12.8667	12.6448	0.390077	0.313511
12.8671	12.6443	0.389513	0.313348
12.8676	12.6438	0.391656	0.314738
12.8681	12.6433	0.391471	0.318073
12.8686	12.6429	0.391271	0.31746
12.869	12.6424	0.393279	0.319007
12.8695	12.642	0.391767	0.318178
12.87	12.6415	0.393528	0.320236
12.8704	12.641	0.394039	0.321919
12.8709	12.6405	0.393027	0.321885
12.8714	12.6401	0.391426	0.320333
12.8719	12.6396	0.393239	0.318914
12.8723	12.6391	0.393863	0.319553
12.8728	12.6387	0.392671	0.319551
12.8733	12.6382	0.392827	0.320676
12.8737	12.6377	0.392671	0.318642
12.8742	12.6373	0.391904	0.315146
12.8747	12.6368	0.394049	0.316535
12.8752	12.6363	0.394871	0.316093
12.8756	12.6358	0.391081	0.315037
12.8761	12.6354	0.392531	0.314154
12.8766	12.6349	0.39284	0.311656
12.8771	12.6344	0.394418	0.313199
12.8775	12.6339	0.393424	0.313696
12.878	12.6335	0.392625	0.314936
12.8785	12.633	0.39165	0.313064
12.8789	12.6325	0.391891	0.31128
12.8794	12.6321	0.39298	0.311831
12.8799	12.6316	0.393856	0.313088
12.8804	12.6311	0.391924	0.313571
12.8808	12.6306	0.391125	0.312155
12.8813	12.6302	0.391054	0.312319
12.8818	12.6297	0.393824	0.311846
12.8822	12.6292	0.393291	0.315533
12.8827	12.6288	0.391524	0.315359
12.8832	12.6283	0.391556	0.312799
12.8837	12.6278	0.391592	0.312492
12.8841	12.6274	0.392275	0.31323
12.8846	12.6269	0.392005	0.314103
12.8851	12.6264	0.390569	0.312688
12.8856	12.6259	0.391796	0.310569
12.886	12.6254	0.3919	0.311434
12.8865	12.625	0.391866	0.310999
12.887	12.6245	0.391159	0.311539
12.8874	12.624	0.390088	0.3103
12.8879	12.6235	0.389782	0.308092
12.8884	12.6231	0.390672	0.305599
12.8889	12.6226	0.391732	0.306599
12.8893	12.6221	0.392376	0.307569
12.8898	12.6217	0.390498	0.304837
12.8903	12.6212	0.390301	0.303739
12.8907	12.6207	0.391003	0.302971
12.8912	12.6202	0.391615	0.303131
12.8917	12.6198	0.391759	0.305192
12.8922	12.6193	0.389294	0.3037
12.8926	12.6188	0.389997	0.302773
12.8931	12.6184	0.389173	0.303216
12.8936	12.6179	0.391115	0.30289
12.8941	12.6174	0.391469	0.304464
12.8945	12.6169	0.389498	0.303867
12.895	12.6165	0.38815	0.302552
12.8955	12.616	0.389851	0.301189
12.8959	12.6155	0.390236	0.302497
12.8964	12.615	0.390566	0.303564
12.8969	12.6145	0.38821	0.302387
12.8974	12.6141	0.389342	0.301598
12.8978	12.6136	0.389105	0.299528
12.8983	12.6131	0.38968	0.299322
12.8988	12.6127	0.389798	0.301118
