# 1304     AichiSR QXAFS
# Start     : 8.9544
# End       : 9.0544
# Dir       : Backward
# Points    : 300
# ScanTime  : 1.01549
# Date      : 13.04.23 22:20
# Ring Cur. : 25.5[mA]
12.7557	12.6117	0.294699	0.226323
12.7562	12.6122	0.294492	0.224741
12.7566	12.6127	0.295521	0.227067
12.7571	12.6131	0.297471	0.228963
12.7576	12.6136	0.296324	0.231126
12.7581	12.614	0.295673	0.229417
12.7585	12.6145	0.298255	0.230318
12.759	12.615	0.299393	0.231008
12.7595	12.6155	0.298683	0.233438
12.7599	12.616	0.300226	0.234688
12.7604	12.6164	0.298785	0.23407
12.7609	12.6169	0.297862	0.231812
12.7614	12.6174	0.30099	0.233763
12.7618	12.6179	0.30119	0.235393
12.7623	12.6183	0.299483	0.235429
12.7628	12.6188	0.299859	0.234523
12.7632	12.6193	0.300233	0.232961
12.7637	12.6197	0.300984	0.23352
12.7642	12.6202	0.298501	0.234763
12.7647	12.6207	0.301314	0.236292
12.7651	12.6212	0.300748	0.23546
12.7656	12.6216	0.297257	0.233123
12.7661	12.6221	0.302976	0.235232
12.7666	12.6226	0.301572	0.236168
12.767	12.623	0.300737	0.23813
12.7675	12.6235	0.300081	0.236206
12.768	12.624	0.302825	0.237665
12.7684	12.6245	0.304285	0.239191
12.7689	12.6249	0.301454	0.238948
12.7694	12.6254	0.301573	0.2425
12.7699	12.6259	0.302912	0.241926
12.7703	12.6264	0.301411	0.239124
12.7708	12.6269	0.30294	0.24119
12.7713	12.6273	0.303872	0.244082
12.7717	12.6278	0.302339	0.243554
12.7722	12.6283	0.301141	0.241738
12.7727	12.6288	0.301172	0.24146
12.7732	12.6292	0.304129	0.243215
12.7736	12.6297	0.302462	0.243564
12.7741	12.6301	0.304094	0.24565
12.7746	12.6306	0.304142	0.243035
12.7751	12.6311	0.303061	0.241332
12.7755	12.6316	0.305686	0.243968
12.776	12.632	0.30564	0.243948
12.7765	12.6325	0.305008	0.244436
12.7769	12.633	0.305725	0.24386
12.7774	12.6334	0.306017	0.241795
12.7779	12.6339	0.305398	0.242673
12.7784	12.6344	0.304686	0.243898
12.7788	12.6348	0.30443	0.245859
12.7793	12.6353	0.305401	0.244012
12.7798	12.6358	0.303313	0.242352
12.7802	12.6363	0.307237	0.246122
12.7807	12.6368	0.307193	0.246733
12.7812	12.6372	0.304943	0.246674
12.7817	12.6377	0.306365	0.248251
12.7821	12.6382	0.307395	0.247918
12.7826	12.6386	0.309469	0.249097
12.7831	12.6391	0.307464	0.250176
12.7836	12.6396	0.307597	0.25259
12.784	12.64	0.305549	0.250181
12.7845	12.6405	0.306064	0.247576
12.785	12.641	0.308157	0.251507
12.7854	12.6415	0.307801	0.250752
12.7859	12.6419	0.305191	0.249943
12.7864	12.6424	0.306662	0.249921
12.7869	12.6428	0.30676	0.250269
12.7873	12.6433	0.307938	0.24823
12.7878	12.6438	0.307352	0.249985
12.7883	12.6442	0.307582	0.250381
12.7887	12.6447	0.306467	0.248455
12.7892	12.6452	0.304412	0.245766
12.7897	12.6457	0.310577	0.248382
12.7902	12.6462	0.31025	0.248697
12.7906	12.6466	0.305463	0.245942
12.7911	12.6471	0.306579	0.243816
12.7916	12.6476	0.309141	0.242789
12.7921	12.6481	0.308842	0.242
12.7925	12.6486	0.308479	0.242385
12.793	12.649	0.309087	0.241497
12.7935	12.6495	0.307806	0.23746
12.7939	12.65	0.30709	0.233317
12.7944	12.6504	0.311494	0.236248
12.7949	12.6509	0.312783	0.236092
12.7954	12.6514	0.31205	0.233135
12.7958	12.6519	0.311138	0.229759
12.7963	12.6523	0.312363	0.228532
12.7968	12.6528	0.313663	0.227007
12.7972	12.6533	0.313672	0.226028
12.7977	12.6537	0.31299	0.226119
12.7982	12.6542	0.311719	0.221638
12.7987	12.6547	0.309857	0.218279
12.7991	12.6552	0.311932	0.218416
12.7996	12.6556	0.312813	0.21925
12.8001	12.6561	0.311971	0.218595
12.8006	12.6566	0.310297	0.214757
12.801	12.6571	0.311636	0.214082
12.8015	12.6576	0.313411	0.214834
12.802	12.658	0.315386	0.218455
12.8024	12.6585	0.314996	0.217705
12.8029	12.659	0.31297	0.215435
12.8034	12.6594	0.313473	0.216519
12.8039	12.6599	0.315043	0.218972
12.8043	12.6604	0.31558	0.22097
12.8048	12.6608	0.313368	0.22297
12.8053	12.6613	0.313208	0.222038
12.8057	12.6618	0.313575	0.220802
12.8062	12.6623	0.313352	0.223912
12.8067	12.6627	0.313364	0.227397
12.8072	12.6632	0.314407	0.230387
12.8076	12.6636	0.314135	0.229387
12.8081	12.6641	0.312635	0.229297
12.8086	12.6646	0.316173	0.233038
12.8091	12.6651	0.316605	0.237349
12.8095	12.6655	0.31532	0.239321
12.81	12.666	0.314963	0.238059
12.8105	12.6665	0.316488	0.240849
12.8109	12.667	0.315957	0.243075
12.8114	12.6674	0.315434	0.245338
12.8119	12.6679	0.317343	0.248764
12.8124	12.6684	0.315026	0.248877
12.8128	12.6689	0.313062	0.248094
12.8133	12.6693	0.31461	0.252935
12.8138	12.6698	0.316895	0.256305
12.8142	12.6702	0.316757	0.258885
12.8147	12.6707	0.316143	0.258989
12.8152	12.6712	0.317175	0.259919
12.8157	12.6717	0.315142	0.261303
12.8161	12.6721	0.315155	0.265961
12.8166	12.6726	0.319053	0.270477
12.8171	12.6731	0.315668	0.266186
12.8176	12.6735	0.314529	0.264895
12.818	12.674	0.317569	0.269613
12.8185	12.6745	0.319471	0.272272
12.819	12.675	0.315034	0.271747
12.8194	12.6754	0.315622	0.271167
12.8199	12.6759	0.31946	0.272082
12.8204	12.6764	0.31636	0.272004
12.8209	12.6769	0.31548	0.272596
12.8213	12.6774	0.318449	0.276607
12.8218	12.6778	0.318115	0.274199
12.8223	12.6783	0.317001	0.273195
12.8227	12.6788	0.316497	0.272428
12.8232	12.6792	0.319405	0.273321
12.8237	12.6797	0.317762	0.272725
12.8242	12.6802	0.318427	0.270048
12.8246	12.6807	0.317934	0.266443
12.8251	12.6811	0.316332	0.263656
12.8256	12.6816	0.316522	0.263451
12.8261	12.6821	0.317016	0.263267
12.8265	12.6825	0.316332	0.25871
12.827	12.683	0.315036	0.2542
12.8275	12.6835	0.317105	0.253231
12.8279	12.6839	0.317461	0.252402
12.8284	12.6844	0.315698	0.250312
12.8289	12.6849	0.315511	0.245334
12.8294	12.6854	0.319481	0.243589
12.8298	12.6859	0.316725	0.241466
12.8303	12.6863	0.316863	0.239158
12.8308	12.6868	0.318367	0.236818
12.8312	12.6873	0.318505	0.231226
12.8317	12.6878	0.317046	0.226484
12.8322	12.6883	0.317487	0.224772
12.8327	12.6887	0.318396	0.224736
12.8331	12.6892	0.317945	0.221813
12.8336	12.6896	0.318832	0.218727
12.8341	12.6901	0.319688	0.220405
12.8346	12.6906	0.318779	0.220206
12.835	12.6911	0.317708	0.223466
12.8355	12.6915	0.319008	0.227252
12.836	12.692	0.317781	0.228986
12.8364	12.6925	0.319367	0.2317
12.8369	12.6929	0.319198	0.237441
12.8374	12.6934	0.318742	0.243231
12.8379	12.6938	0.316549	0.24693
12.8383	12.6943	0.319595	0.250378
12.8388	12.6948	0.32012	0.255498
12.8393	12.6953	0.318934	0.255929
12.8397	12.6958	0.317969	0.258711
12.8402	12.6962	0.318461	0.260832
12.8407	12.6967	0.317417	0.257512
12.8412	12.6972	0.318141	0.256119
12.8416	12.6977	0.318871	0.25662
12.8421	12.6981	0.319211	0.255753
12.8426	12.6986	0.318146	0.252337
12.8431	12.6991	0.317652	0.249146
12.8435	12.6995	0.317436	0.24462
12.844	12.7	0.316333	0.2411
12.8445	12.7004	0.31681	0.23955
12.8449	12.7009	0.317951	0.236028
12.8454	12.7014	0.317378	0.23026
12.8459	12.7019	0.316951	0.227389
12.8464	12.7023	0.317236	0.225229
12.8468	12.7028	0.31932	0.226683
12.8473	12.7033	0.317275	0.225859
12.8478	12.7037	0.31745	0.224825
12.8482	12.7042	0.320585	0.228206
12.8487	12.7047	0.319517	0.233499
12.8492	12.7052	0.319214	0.237155
12.8497	12.7057	0.320013	0.246581
12.8501	12.7062	0.319366	0.253487
12.8506	12.7066	0.319473	0.260864
12.8511	12.7071	0.320899	0.271247
12.8516	12.7076	0.320812	0.285711
12.852	12.7081	0.319047	0.296741
12.8525	12.7085	0.318406	0.307338
12.853	12.709	0.320877	0.322932
12.8534	12.7095	0.320846	0.336118
12.8539	12.7099	0.319878	0.349727
12.8544	12.7104	0.321086	0.36498
12.8549	12.7109	0.320852	0.37524
12.8553	12.7114	0.320025	0.384976
12.8558	12.7118	0.321648	0.400382
12.8563	12.7123	0.321001	0.412871
12.8567	12.7128	0.320099	0.421966
12.8572	12.7132	0.320746	0.42865
12.8577	12.7137	0.322768	0.438848
12.8582	12.7142	0.319951	0.443734
12.8586	12.7146	0.320757	0.455256
12.8591	12.7151	0.321698	0.466315
12.8596	12.7156	0.319077	0.469087
12.8601	12.7161	0.321621	0.478418
12.8605	12.7166	0.321649	0.489966
12.861	12.717	0.32091	0.498589
12.8615	12.7175	0.318805	0.504517
12.8619	12.718	0.320787	0.50697
12.8624	12.7185	0.321165	0.510559
12.8629	12.7189	0.31861	0.50634
12.8634	12.7194	0.31952	0.504945
12.8638	12.7198	0.320036	0.501745
12.8643	12.7203	0.31822	0.494722
12.8648	12.7208	0.31813	0.493403
12.8652	12.7213	0.319443	0.496717
12.8657	12.7217	0.318389	0.501926
12.8662	12.7222	0.318494	0.514576
12.8667	12.7227	0.319443	0.537047
12.8671	12.7231	0.320265	0.566881
12.8676	12.7236	0.316243	0.604285
12.8681	12.7241	0.317262	0.657425
12.8686	12.7245	0.317429	0.708701
12.869	12.725	0.313866	0.746257
12.8695	12.7255	0.314021	0.786759
12.87	12.726	0.316412	0.83113
12.8704	12.7264	0.315753	0.856878
12.8709	12.7269	0.315331	0.873358
12.8714	12.7274	0.317202	0.890749
12.8719	12.7279	0.321155	0.909351
12.8723	12.7283	0.317265	0.913626
12.8728	12.7288	0.316742	0.920664
12.8733	12.7293	0.318221	0.930652
12.8737	12.7297	0.318472	0.933367
12.8742	12.7302	0.318828	0.931916
12.8747	12.7307	0.317011	0.939004
12.8752	12.7312	0.318465	0.945404
12.8756	12.7316	0.317831	0.946125
12.8761	12.7321	0.319054	0.949125
12.8766	12.7326	0.32091	0.951852
12.8771	12.733	0.317985	0.947716
12.8775	12.7335	0.318315	0.955356
12.878	12.734	0.320237	0.960951
12.8785	12.7345	0.318337	0.953821
12.8789	12.7349	0.319409	0.955435
12.8794	12.7354	0.31853	0.958432
12.8799	12.7359	0.317164	0.962892
12.8804	12.7364	0.317675	0.961056
12.8808	12.7369	0.319197	0.960161
12.8813	12.7374	0.322615	0.966097
12.8818	12.7378	0.318538	0.961355
12.8822	12.7383	0.318174	0.966299
12.8827	12.7388	0.318792	0.967841
12.8832	12.7392	0.321484	0.968464
12.8837	12.7397	0.320368	0.967093
12.8841	12.7402	0.319251	0.965961
12.8846	12.7406	0.318762	0.970573
12.8851	12.7411	0.319387	0.970789
12.8856	12.7416	0.320411	0.972645
12.886	12.7421	0.322892	0.970581
12.8865	12.7425	0.318757	0.969173
12.887	12.743	0.318141	0.973531
12.8874	12.7435	0.321075	0.977549
12.8879	12.7439	0.320487	0.972188
12.8884	12.7444	0.324821	0.979614
12.8889	12.7449	0.323747	0.98667
12.8893	12.7454	0.32119	0.979703
12.8898	12.7458	0.320832	0.976439
12.8903	12.7463	0.32256	0.98104
12.8907	12.7468	0.324697	0.981771
12.8912	12.7473	0.319886	0.973949
12.8917	12.7477	0.321197	0.977616
12.8922	12.7482	0.321737	0.982303
12.8926	12.7487	0.322676	0.979359
12.8931	12.7491	0.320673	0.975481
12.8936	12.7496	0.32362	0.983553
12.8941	12.7501	0.320891	0.981111
12.8945	12.7505	0.32064	0.979303
12.895	12.751	0.322892	0.985569
12.8955	12.7515	0.323707	0.984858
12.8959	12.752	0.321315	0.97836
12.8964	12.7524	0.321594	0.983475
12.8969	12.7529	0.323743	0.986906
12.8974	12.7533	0.321933	0.981754
12.8978	12.7538	0.322989	0.981132
12.8983	12.7543	0.323204	0.984844
12.8988	12.7548	0.32302	0.98467
