# 1304     AichiSR QXAFS
# Start     : 8.9544
# End       : 9.0544
# Dir       : Backward
# Points    : 300
# ScanTime  : 1.01549
# Date      : 13.04.23 22:23
# Ring Cur. : 25.5[mA]
12.7557	12.6118	0.301647	0.232499
12.7562	12.6122	0.302658	0.233572
12.7566	12.6127	0.303095	0.233256
12.7571	12.6131	0.303735	0.232695
12.7576	12.6136	0.30326	0.233779
12.7581	12.6141	0.303572	0.23697
12.7585	12.6145	0.304001	0.236335
12.759	12.615	0.300934	0.233437
12.7595	12.6155	0.305119	0.234034
12.7599	12.616	0.30461	0.235966
12.7604	12.6165	0.303705	0.238144
12.7609	12.6169	0.303175	0.237241
12.7614	12.6174	0.303801	0.235611
12.7618	12.6179	0.307853	0.238331
12.7623	12.6184	0.302417	0.235555
12.7628	12.6188	0.304814	0.238425
12.7632	12.6193	0.303518	0.237557
12.7637	12.6197	0.305041	0.236094
12.7642	12.6202	0.302934	0.235486
12.7647	12.6207	0.304164	0.239186
12.7651	12.6212	0.304126	0.239901
12.7656	12.6217	0.301987	0.236934
12.7661	12.6221	0.303686	0.235259
12.7666	12.6226	0.306093	0.238844
12.767	12.6231	0.308917	0.242649
12.7675	12.6235	0.304133	0.240536
12.768	12.624	0.305578	0.242516
12.7684	12.6245	0.305524	0.240318
12.7689	12.625	0.304849	0.240395
12.7694	12.6254	0.305043	0.242743
12.7699	12.6259	0.304525	0.244264
12.7703	12.6264	0.303416	0.24402
12.7708	12.6269	0.304538	0.242617
12.7713	12.6274	0.306196	0.24448
12.7717	12.6278	0.302492	0.243942
12.7722	12.6283	0.303926	0.246441
12.7727	12.6288	0.305208	0.246288
12.7732	12.6292	0.303242	0.242136
12.7736	12.6297	0.306442	0.243636
12.7741	12.6302	0.306452	0.245894
12.7746	12.6306	0.306333	0.247006
12.7751	12.6311	0.303831	0.242469
12.7755	12.6316	0.304192	0.243267
12.776	12.6321	0.307233	0.245069
12.7765	12.6325	0.306309	0.245851
12.7769	12.633	0.306834	0.246763
12.7774	12.6335	0.305952	0.244301
12.7779	12.6339	0.306914	0.243864
12.7784	12.6344	0.307994	0.244253
12.7788	12.6349	0.307978	0.246664
12.7793	12.6353	0.307503	0.246267
12.7798	12.6358	0.307853	0.246385
12.7802	12.6363	0.307965	0.24577
12.7807	12.6368	0.307033	0.247758
12.7812	12.6373	0.307397	0.246923
12.7817	12.6377	0.310513	0.25196
12.7821	12.6382	0.310087	0.252357
12.7826	12.6387	0.309431	0.250766
12.7831	12.6391	0.310702	0.250049
12.7836	12.6396	0.310621	0.253187
12.784	12.64	0.308899	0.253691
12.7845	12.6405	0.30973	0.252647
12.785	12.641	0.310856	0.252942
12.7854	12.6415	0.311518	0.252754
12.7859	12.6419	0.308655	0.252812
12.7864	12.6424	0.308767	0.254786
12.7869	12.6429	0.310808	0.254289
12.7873	12.6433	0.309476	0.25144
12.7878	12.6438	0.308254	0.250568
12.7883	12.6443	0.311515	0.253044
12.7887	12.6447	0.310855	0.252282
12.7892	12.6452	0.307917	0.250155
12.7897	12.6457	0.311126	0.248471
12.7902	12.6462	0.311401	0.248371
12.7906	12.6467	0.308724	0.247147
12.7911	12.6471	0.309688	0.248349
12.7916	12.6476	0.312461	0.246828
12.7921	12.6481	0.310981	0.243334
12.7925	12.6486	0.310716	0.242322
12.793	12.649	0.313564	0.243357
12.7935	12.6495	0.313443	0.242454
12.7939	12.65	0.310863	0.238705
12.7944	12.6505	0.314876	0.237402
12.7949	12.6509	0.315012	0.237522
12.7954	12.6514	0.313955	0.234639
12.7958	12.6519	0.314297	0.233663
12.7963	12.6524	0.316069	0.230913
12.7968	12.6528	0.315837	0.228798
12.7972	12.6533	0.316993	0.226201
12.7977	12.6538	0.31632	0.226456
12.7982	12.6542	0.316792	0.226325
12.7987	12.6547	0.316526	0.221837
12.7991	12.6552	0.316766	0.220482
12.7996	12.6557	0.316142	0.22027
12.8001	12.6561	0.317231	0.219586
12.8006	12.6566	0.317354	0.220142
12.801	12.6571	0.317444	0.218125
12.8015	12.6576	0.315821	0.217045
12.802	12.6581	0.316753	0.218441
12.8024	12.6585	0.317574	0.219827
12.8029	12.659	0.317008	0.221008
12.8034	12.6594	0.316932	0.218733
12.8039	12.6599	0.31764	0.22099
12.8043	12.6604	0.31943	0.223457
12.8048	12.6609	0.317639	0.223559
12.8053	12.6613	0.318467	0.2264
12.8057	12.6618	0.320003	0.229239
12.8062	12.6623	0.31944	0.227382
12.8067	12.6627	0.318316	0.229974
12.8072	12.6632	0.318503	0.233087
12.8076	12.6637	0.318461	0.235777
12.8081	12.6641	0.318525	0.234473
12.8086	12.6646	0.318595	0.237315
12.8091	12.6651	0.319351	0.238883
12.8095	12.6656	0.318461	0.241107
12.81	12.666	0.320346	0.245226
12.8105	12.6665	0.322091	0.244702
12.8109	12.667	0.320013	0.245869
12.8114	12.6675	0.321111	0.249061
12.8119	12.6679	0.321694	0.253386
12.8124	12.6684	0.32031	0.253353
12.8128	12.6689	0.31865	0.254185
12.8133	12.6693	0.321217	0.257985
12.8138	12.6698	0.321944	0.259252
12.8142	12.6703	0.318562	0.261104
12.8147	12.6707	0.320557	0.264657
12.8152	12.6712	0.321498	0.264805
12.8157	12.6717	0.320792	0.265274
12.8161	12.6721	0.320945	0.267908
12.8166	12.6726	0.322862	0.27115
12.8171	12.6731	0.321342	0.273353
12.8176	12.6735	0.320284	0.272315
12.818	12.674	0.322842	0.274634
12.8185	12.6745	0.323124	0.276016
12.819	12.675	0.32202	0.277114
12.8194	12.6755	0.323176	0.278127
12.8199	12.6759	0.322424	0.276505
12.8204	12.6764	0.322712	0.276335
12.8209	12.6769	0.321587	0.278288
12.8213	12.6774	0.323122	0.279606
12.8218	12.6779	0.321017	0.279425
12.8223	12.6783	0.322044	0.277398
12.8227	12.6788	0.323877	0.278126
12.8232	12.6793	0.323876	0.27842
12.8237	12.6797	0.322345	0.276677
12.8242	12.6802	0.32217	0.274752
12.8246	12.6807	0.324044	0.273281
12.8251	12.6812	0.324595	0.269166
12.8256	12.6816	0.323165	0.268403
12.8261	12.6821	0.322621	0.266741
12.8265	12.6826	0.322526	0.264997
12.827	12.683	0.321263	0.259471
12.8275	12.6835	0.323196	0.257353
12.8279	12.684	0.322939	0.255107
12.8284	12.6844	0.322313	0.254925
12.8289	12.6849	0.321184	0.250927
12.8294	12.6854	0.322364	0.247313
12.8298	12.6859	0.324631	0.244365
12.8303	12.6864	0.323243	0.241588
12.8308	12.6868	0.323976	0.240549
12.8312	12.6873	0.323559	0.237235
12.8317	12.6878	0.323819	0.231562
12.8322	12.6883	0.327119	0.229834
12.8327	12.6887	0.325289	0.227312
12.8331	12.6892	0.322692	0.22454
12.8336	12.6897	0.325389	0.224177
12.8341	12.6901	0.325386	0.222767
12.8346	12.6906	0.326137	0.22347
12.835	12.6911	0.32208	0.225423
12.8355	12.6916	0.325495	0.230633
12.836	12.692	0.325297	0.235608
12.8364	12.6925	0.32326	0.237614
12.8369	12.6929	0.32682	0.242382
12.8374	12.6934	0.325221	0.247864
12.8379	12.6939	0.324159	0.253157
12.8383	12.6943	0.325697	0.257512
12.8388	12.6948	0.325471	0.259608
12.8393	12.6953	0.324863	0.260254
12.8397	12.6958	0.324929	0.263552
12.8402	12.6962	0.324465	0.26565
12.8407	12.6967	0.322861	0.262936
12.8412	12.6972	0.321799	0.260192
12.8416	12.6977	0.324933	0.260163
12.8421	12.6981	0.323405	0.258231
12.8426	12.6986	0.320962	0.256591
12.8431	12.6991	0.32357	0.252812
12.8435	12.6995	0.325493	0.249004
12.844	12.7	0.32494	0.245334
12.8445	12.7005	0.323889	0.240967
12.8449	12.7009	0.325505	0.23971
12.8454	12.7014	0.325917	0.236242
12.8459	12.7019	0.32289	0.230078
12.8464	12.7024	0.326808	0.229832
12.8468	12.7028	0.323977	0.228886
12.8473	12.7033	0.322235	0.228092
12.8478	12.7038	0.323173	0.230176
12.8482	12.7042	0.325895	0.232365
12.8487	12.7047	0.324816	0.235848
12.8492	12.7052	0.323555	0.242666
12.8497	12.7057	0.32608	0.252826
12.8501	12.7062	0.325275	0.259577
12.8506	12.7067	0.324961	0.266488
12.8511	12.7071	0.327618	0.280016
12.8516	12.7076	0.326863	0.291341
12.852	12.7081	0.323445	0.304156
12.8525	12.7086	0.325326	0.316137
12.853	12.709	0.327516	0.331968
12.8534	12.7095	0.327125	0.344272
12.8539	12.7099	0.324181	0.355689
12.8544	12.7104	0.325542	0.372252
12.8549	12.7109	0.325476	0.384209
12.8553	12.7114	0.325829	0.394719
12.8558	12.7119	0.327775	0.409141
12.8563	12.7123	0.324887	0.42007
12.8567	12.7128	0.324609	0.429185
12.8572	12.7132	0.326545	0.441814
12.8577	12.7137	0.327767	0.447653
12.8582	12.7142	0.328733	0.456342
12.8586	12.7147	0.325699	0.464448
12.8591	12.7151	0.32639	0.474192
12.8596	12.7156	0.325256	0.480835
12.8601	12.7161	0.327246	0.489682
12.8605	12.7166	0.329089	0.499951
12.861	12.7171	0.325247	0.507102
12.8615	12.7175	0.324473	0.512554
12.8619	12.718	0.326437	0.517286
12.8624	12.7185	0.327113	0.517924
12.8629	12.7189	0.32708	0.515134
12.8634	12.7194	0.3254	0.512714
12.8638	12.7199	0.325174	0.511488
12.8643	12.7203	0.325623	0.50525
12.8648	12.7208	0.326559	0.503163
12.8652	12.7213	0.327623	0.508662
12.8657	12.7218	0.325921	0.514418
12.8662	12.7222	0.32299	0.525763
12.8667	12.7227	0.325057	0.549371
12.8671	12.7231	0.325011	0.582984
12.8676	12.7236	0.325442	0.626372
12.8681	12.7241	0.322799	0.674771
12.8686	12.7245	0.319881	0.725408
12.869	12.725	0.320314	0.768727
12.8695	12.7255	0.319924	0.811268
12.87	12.726	0.324365	0.854786
12.8704	12.7265	0.323798	0.876889
12.8709	12.7269	0.320479	0.893005
12.8714	12.7274	0.321779	0.909432
12.8719	12.7279	0.326103	0.930437
12.8723	12.7284	0.327262	0.938125
12.8728	12.7288	0.324668	0.943731
12.8733	12.7293	0.325817	0.954118
12.8737	12.7298	0.324262	0.951743
12.8742	12.7302	0.324422	0.953162
12.8747	12.7307	0.326314	0.961984
12.8752	12.7312	0.327082	0.96624
12.8756	12.7317	0.321985	0.960132
12.8761	12.7321	0.322789	0.963427
12.8766	12.7326	0.326629	0.970237
12.8771	12.7331	0.326818	0.973789
12.8775	12.7335	0.324472	0.97354
12.878	12.734	0.326039	0.981582
12.8785	12.7345	0.325622	0.977955
12.8789	12.735	0.326569	0.979704
12.8794	12.7355	0.327858	0.98565
12.8799	12.7359	0.328573	0.98567
12.8804	12.7364	0.32547	0.984998
12.8808	12.7369	0.324868	0.97977
12.8813	12.7374	0.327714	0.985965
12.8818	12.7379	0.327283	0.986939
12.8822	12.7383	0.327263	0.986243
12.8827	12.7388	0.326905	0.989034
12.8832	12.7393	0.325531	0.984378
12.8837	12.7397	0.324861	0.982502
12.8841	12.7402	0.327832	0.992944
12.8846	12.7407	0.328577	0.996517
12.8851	12.7411	0.324663	0.990068
12.8856	12.7416	0.326233	0.989878
12.886	12.7421	0.32965	0.997287
12.8865	12.7425	0.328712	0.996561
12.887	12.743	0.327639	0.993856
12.8874	12.7435	0.328826	1.00151
12.8879	12.744	0.328288	0.997144
12.8884	12.7444	0.326363	0.991293
12.8889	12.7449	0.329602	0.99668
12.8893	12.7454	0.328732	0.999128
12.8898	12.7459	0.324928	0.99157
12.8903	12.7463	0.328357	0.994484
12.8907	12.7468	0.328373	0.994834
12.8912	12.7473	0.327104	0.994566
12.8917	12.7478	0.327638	0.999235
12.8922	12.7482	0.3302	1.00598
12.8926	12.7487	0.327861	0.99889
12.8931	12.7492	0.328523	0.994867
12.8936	12.7496	0.332653	1.00911
12.8941	12.7501	0.330419	1.0057
12.8945	12.7506	0.325799	0.999386
12.895	12.751	0.326775	1.00117
12.8955	12.7515	0.327775	1.00049
12.8959	12.752	0.327162	0.997575
12.8964	12.7524	0.326765	0.998352
12.8969	12.7529	0.327353	1.00292
12.8974	12.7534	0.326121	0.996638
12.8978	12.7538	0.327156	0.9931
12.8983	12.7543	0.329367	1.00315
12.8988	12.7548	0.329008	1.00526
