# 1304     AichiSR QXAFS
# Start     : 8.9544
# End       : 9.0544
# Dir       : Backward
# Points    : 300
# ScanTime  : 1.01549
# Date      : 13.04.23 22:31
# Ring Cur. : 25.6[mA]
12.7557	12.6118	0.303178	0.232974
12.7562	12.6123	0.302106	0.231344
12.7566	12.6127	0.306631	0.234382
12.7571	12.6132	0.304535	0.235596
12.7576	12.6137	0.304347	0.236393
12.7581	12.6141	0.304647	0.236238
12.7585	12.6146	0.304861	0.235437
12.759	12.6151	0.305258	0.236379
12.7595	12.6156	0.30608	0.238541
12.7599	12.6161	0.305532	0.239827
12.7604	12.6165	0.304462	0.237752
12.7609	12.617	0.305147	0.236654
12.7614	12.6175	0.307888	0.237921
12.7618	12.618	0.306624	0.24067
12.7623	12.6184	0.305409	0.239109
12.7628	12.6189	0.305998	0.237663
12.7632	12.6194	0.305332	0.237382
12.7637	12.6198	0.308789	0.239353
12.7642	12.6203	0.306511	0.239091
12.7647	12.6208	0.306468	0.240874
12.7651	12.6213	0.306817	0.239163
12.7656	12.6217	0.302921	0.236298
12.7661	12.6222	0.308243	0.239203
12.7666	12.6227	0.307204	0.241169
12.767	12.6231	0.307332	0.241673
12.7675	12.6236	0.303987	0.239398
12.768	12.6241	0.307182	0.242013
12.7684	12.6246	0.309696	0.241949
12.7689	12.625	0.306629	0.24151
12.7694	12.6255	0.307254	0.245847
12.7699	12.626	0.305341	0.244564
12.7703	12.6265	0.304727	0.242529
12.7708	12.6269	0.308695	0.246307
12.7713	12.6274	0.306284	0.246943
12.7717	12.6279	0.30684	0.246674
12.7722	12.6284	0.305683	0.245477
12.7727	12.6288	0.307625	0.246561
12.7732	12.6293	0.309583	0.245592
12.7736	12.6298	0.306517	0.246174
12.7741	12.6302	0.306616	0.247691
12.7746	12.6307	0.306774	0.24471
12.7751	12.6312	0.305475	0.243559
12.7755	12.6317	0.309982	0.246028
12.776	12.6321	0.308933	0.246121
12.7765	12.6326	0.308096	0.245932
12.7769	12.6331	0.308282	0.245697
12.7774	12.6335	0.306702	0.244463
12.7779	12.634	0.308488	0.245138
12.7784	12.6345	0.307007	0.244969
12.7788	12.6349	0.309225	0.248453
12.7793	12.6354	0.307037	0.245603
12.7798	12.6359	0.307323	0.245703
12.7802	12.6364	0.30948	0.24773
12.7807	12.6369	0.307552	0.249484
12.7812	12.6373	0.305651	0.249537
12.7817	12.6378	0.308689	0.249925
12.7821	12.6383	0.309342	0.249123
12.7826	12.6387	0.308481	0.251296
12.7831	12.6392	0.308222	0.251161
12.7836	12.6397	0.308658	0.253905
12.784	12.6401	0.309179	0.251873
12.7845	12.6406	0.307931	0.249907
12.785	12.6411	0.310519	0.252274
12.7854	12.6416	0.309506	0.253304
12.7859	12.642	0.308473	0.254056
12.7864	12.6425	0.308874	0.25251
12.7869	12.6429	0.309166	0.251107
12.7873	12.6434	0.308654	0.250517
12.7878	12.6439	0.307412	0.251544
12.7883	12.6443	0.306195	0.252242
12.7887	12.6448	0.306668	0.246881
12.7892	12.6453	0.30609	0.245587
12.7897	12.6458	0.308456	0.247319
12.7902	12.6463	0.308024	0.246868
12.7906	12.6467	0.30505	0.244892
12.7911	12.6472	0.3081	0.245277
12.7916	12.6477	0.310462	0.243368
12.7921	12.6482	0.308462	0.242688
12.7925	12.6486	0.309447	0.241285
12.793	12.6491	0.310725	0.241781
12.7935	12.6496	0.309551	0.237751
12.7939	12.6501	0.308402	0.234508
12.7944	12.6505	0.312126	0.234461
12.7949	12.651	0.311314	0.234465
12.7954	12.6515	0.310222	0.231167
12.7958	12.652	0.310367	0.228366
12.7963	12.6524	0.313915	0.227051
12.7968	12.6529	0.311697	0.225697
12.7972	12.6534	0.31055	0.2256
12.7977	12.6538	0.310861	0.223518
12.7982	12.6543	0.31148	0.220359
12.7987	12.6548	0.311716	0.217698
12.7991	12.6553	0.310716	0.218293
12.7996	12.6557	0.310165	0.217674
12.8001	12.6562	0.309376	0.216283
12.8006	12.6567	0.309871	0.215011
12.801	12.6572	0.312177	0.214927
12.8015	12.6577	0.314901	0.216248
12.802	12.6581	0.314562	0.217484
12.8024	12.6586	0.312944	0.216886
12.8029	12.6591	0.311011	0.214715
12.8034	12.6595	0.312901	0.216332
12.8039	12.66	0.313164	0.217247
12.8043	12.6605	0.314082	0.220067
12.8048	12.6609	0.311934	0.221148
12.8053	12.6614	0.310915	0.221723
12.8057	12.6619	0.312852	0.223075
12.8062	12.6623	0.312168	0.224013
12.8067	12.6628	0.31335	0.226947
12.8072	12.6633	0.312835	0.228272
12.8076	12.6637	0.312204	0.228856
12.8081	12.6642	0.314095	0.231425
12.8086	12.6647	0.31477	0.234798
12.8091	12.6652	0.312861	0.235975
12.8095	12.6656	0.31263	0.238441
12.81	12.6661	0.312581	0.238797
12.8105	12.6666	0.316439	0.239599
12.8109	12.6671	0.313747	0.243354
12.8114	12.6675	0.314639	0.246473
12.8119	12.668	0.314499	0.249047
12.8124	12.6685	0.313726	0.248222
12.8128	12.6689	0.315838	0.249038
12.8133	12.6694	0.315348	0.254415
12.8138	12.6699	0.316282	0.257236
12.8142	12.6703	0.31318	0.257809
12.8147	12.6708	0.31373	0.256957
12.8152	12.6713	0.318658	0.263266
12.8157	12.6718	0.317431	0.264284
12.8161	12.6722	0.316936	0.266038
12.8166	12.6727	0.317041	0.268231
12.8171	12.6731	0.315879	0.266555
12.8176	12.6736	0.318015	0.268382
12.818	12.6741	0.318338	0.270334
12.8185	12.6746	0.317716	0.272696
12.819	12.675	0.314938	0.271579
12.8194	12.6755	0.316633	0.270911
12.8199	12.676	0.318005	0.273394
12.8204	12.6765	0.318827	0.274135
12.8209	12.677	0.317785	0.275383
12.8213	12.6775	0.318053	0.275677
12.8218	12.6779	0.315755	0.273593
12.8223	12.6784	0.320173	0.273399
12.8227	12.6789	0.319275	0.274575
12.8232	12.6793	0.320208	0.274629
12.8237	12.6798	0.316527	0.271974
12.8242	12.6803	0.318524	0.269906
12.8246	12.6808	0.321087	0.269303
12.8251	12.6812	0.320387	0.267205
12.8256	12.6817	0.320035	0.266276
12.8261	12.6822	0.319226	0.263711
12.8265	12.6826	0.31884	0.259185
12.827	12.6831	0.319516	0.255946
12.8275	12.6836	0.319008	0.255539
12.8279	12.684	0.320139	0.255019
12.8284	12.6845	0.318534	0.251536
12.8289	12.685	0.316837	0.246889
12.8294	12.6855	0.321293	0.245721
12.8298	12.686	0.321391	0.243525
12.8303	12.6864	0.321994	0.241853
12.8308	12.6869	0.322512	0.237177
12.8312	12.6874	0.319259	0.231206
12.8317	12.6879	0.321984	0.228569
12.8322	12.6883	0.322879	0.227428
12.8327	12.6888	0.322559	0.225736
12.8331	12.6893	0.320666	0.222954
12.8336	12.6897	0.321998	0.220195
12.8341	12.6902	0.324217	0.222034
12.8346	12.6907	0.322495	0.222447
12.835	12.6912	0.322019	0.2265
12.8355	12.6916	0.32385	0.230998
12.836	12.6921	0.324054	0.233105
12.8364	12.6925	0.324018	0.236973
12.8369	12.693	0.323591	0.243386
12.8374	12.6935	0.323077	0.249629
12.8379	12.6939	0.321624	0.25108
12.8383	12.6944	0.324873	0.255103
12.8388	12.6949	0.326024	0.258348
12.8393	12.6954	0.321654	0.261004
12.8397	12.6958	0.322758	0.264097
12.8402	12.6963	0.323921	0.263713
12.8407	12.6968	0.322039	0.261188
12.8412	12.6973	0.322799	0.261083
12.8416	12.6978	0.323685	0.260633
12.8421	12.6982	0.324839	0.260263
12.8426	12.6987	0.322849	0.253983
12.8431	12.6991	0.324031	0.251217
12.8435	12.6996	0.326089	0.247114
12.844	12.7001	0.322731	0.244418
12.8445	12.7005	0.322858	0.241256
12.8449	12.701	0.323545	0.237884
12.8454	12.7015	0.32394	0.233048
12.8459	12.702	0.323167	0.229606
12.8464	12.7024	0.323859	0.229292
12.8468	12.7029	0.32408	0.228854
12.8473	12.7034	0.322499	0.228274
12.8478	12.7038	0.322643	0.229305
12.8482	12.7043	0.325719	0.233453
12.8487	12.7048	0.323808	0.238723
12.8492	12.7053	0.324441	0.244122
12.8497	12.7058	0.325185	0.252049
12.8501	12.7063	0.325083	0.258902
12.8506	12.7067	0.325078	0.268564
12.8511	12.7072	0.325213	0.280707
12.8516	12.7077	0.327349	0.294052
12.852	12.7082	0.324394	0.303787
12.8525	12.7086	0.324619	0.316745
12.853	12.7091	0.327793	0.332028
12.8534	12.7096	0.326585	0.346051
12.8539	12.71	0.324851	0.361416
12.8544	12.7105	0.328139	0.374801
12.8549	12.711	0.325619	0.385963
12.8553	12.7115	0.328829	0.398309
12.8558	12.7119	0.327265	0.414063
12.8563	12.7124	0.328284	0.425626
12.8567	12.7129	0.325392	0.430648
12.8572	12.7133	0.32603	0.437783
12.8577	12.7138	0.328085	0.450737
12.8582	12.7143	0.325915	0.458172
12.8586	12.7147	0.325635	0.464319
12.8591	12.7152	0.328019	0.474947
12.8596	12.7157	0.32612	0.480309
12.8601	12.7162	0.327675	0.489243
12.8605	12.7167	0.325722	0.502918
12.861	12.7171	0.325969	0.512509
12.8615	12.7176	0.324688	0.515186
12.8619	12.7181	0.326992	0.520286
12.8624	12.7185	0.3287	0.521618
12.8629	12.719	0.325083	0.517691
12.8634	12.7195	0.323291	0.513847
12.8638	12.7199	0.326793	0.510982
12.8643	12.7204	0.32524	0.50209
12.8648	12.7209	0.32311	0.500697
12.8652	12.7214	0.326015	0.508082
12.8657	12.7218	0.324556	0.516551
12.8662	12.7223	0.323604	0.526582
12.8667	12.7227	0.322176	0.549844
12.8671	12.7232	0.326529	0.58846
12.8676	12.7237	0.323904	0.630314
12.8681	12.7241	0.323036	0.684171
12.8686	12.7246	0.321557	0.734835
12.869	12.7251	0.320121	0.776179
12.8695	12.7256	0.32251	0.824207
12.87	12.7261	0.323311	0.860944
12.8704	12.7265	0.322397	0.884734
12.8709	12.727	0.321967	0.899844
12.8714	12.7275	0.325602	0.918122
12.8719	12.728	0.326546	0.930295
12.8723	12.7284	0.324882	0.932785
12.8728	12.7289	0.323764	0.944564
12.8733	12.7294	0.324934	0.948028
12.8737	12.7298	0.324868	0.951813
12.8742	12.7303	0.32521	0.954887
12.8747	12.7308	0.325506	0.96494
12.8752	12.7313	0.326822	0.970329
12.8756	12.7317	0.324795	0.965495
12.8761	12.7322	0.325223	0.967853
12.8766	12.7327	0.328252	0.97436
12.8771	12.7331	0.32684	0.975073
12.8775	12.7336	0.324872	0.978745
12.878	12.7341	0.325907	0.977129
12.8785	12.7346	0.325838	0.97941
12.8789	12.735	0.326163	0.977494
12.8794	12.7355	0.327174	0.981456
12.8799	12.736	0.32685	0.987991
12.8804	12.7365	0.326824	0.984363
12.8808	12.737	0.327532	0.981766
12.8813	12.7374	0.327889	0.987434
12.8818	12.7379	0.328186	0.989643
12.8822	12.7384	0.325988	0.994903
12.8827	12.7389	0.327662	0.992303
12.8832	12.7393	0.328992	0.991589
12.8837	12.7398	0.326541	0.990752
12.8841	12.7403	0.326768	0.994216
12.8846	12.7407	0.326784	0.994278
12.8851	12.7412	0.327915	0.991517
12.8856	12.7417	0.325994	0.991872
12.886	12.7422	0.327882	0.993402
12.8865	12.7426	0.328873	0.994538
12.887	12.7431	0.327597	0.998926
12.8874	12.7435	0.32914	0.997531
12.8879	12.744	0.329104	0.999108
12.8884	12.7445	0.328917	0.997027
12.8889	12.745	0.329402	1.00372
12.8893	12.7455	0.327559	1.00792
12.8898	12.7459	0.329972	1.00092
12.8903	12.7464	0.330561	1.00188
12.8907	12.7469	0.329126	1.00045
12.8912	12.7474	0.328753	1.00086
12.8917	12.7478	0.330498	1.00641
12.8922	12.7483	0.330452	1.00538
12.8926	12.7488	0.32836	0.999999
12.8931	12.7492	0.328	0.998246
12.8936	12.7497	0.330676	1.00643
12.8941	12.7502	0.329551	1.00983
12.8945	12.7506	0.329104	1.00235
12.895	12.7511	0.329938	1.00508
12.8955	12.7516	0.33253	1.00871
12.8959	12.7521	0.330392	1.00694
12.8964	12.7525	0.329616	1.00698
12.8969	12.753	0.329737	1.01046
12.8974	12.7534	0.329633	1.00485
12.8978	12.7539	0.326982	1.00198
12.8983	12.7544	0.330636	1.00907
12.8988	12.7548	0.328941	1.00759
