# 1304     AichiSR QXAFS
# Start     : 8.9544
# End       : 9.0544
# Dir       : Backward
# Points    : 300
# ScanTime  : 1.01549
# Date      : 13.04.23 22:27
# Ring Cur. : 25.4[mA]
12.7557	12.6118	0.29545	0.225901
12.7562	12.6122	0.293656	0.226555
12.7566	12.6127	0.293554	0.225687
12.7571	12.6132	0.295933	0.226929
12.7576	12.6136	0.296681	0.227424
12.7581	12.6141	0.295003	0.228484
12.7585	12.6146	0.297001	0.231053
12.759	12.615	0.294583	0.231193
12.7595	12.6155	0.296233	0.229023
12.7599	12.616	0.299099	0.231224
12.7604	12.6165	0.296751	0.232274
12.7609	12.617	0.297857	0.232227
12.7614	12.6174	0.295417	0.23242
12.7618	12.6179	0.299089	0.231278
12.7623	12.6184	0.296869	0.230902
12.7628	12.6189	0.299175	0.232966
12.7632	12.6193	0.297893	0.234167
12.7637	12.6198	0.29847	0.233862
12.7642	12.6203	0.296885	0.231678
12.7647	12.6207	0.301299	0.233563
12.7651	12.6212	0.299535	0.234392
12.7656	12.6217	0.297542	0.234704
12.7661	12.6222	0.299658	0.235127
12.7666	12.6226	0.299167	0.233968
12.767	12.6231	0.301696	0.23518
12.7675	12.6236	0.298645	0.235935
12.768	12.624	0.300165	0.23834
12.7684	12.6245	0.300603	0.23742
12.7689	12.625	0.298455	0.236398
12.7694	12.6255	0.302684	0.23824
12.7699	12.626	0.299348	0.239329
12.7703	12.6264	0.300572	0.241249
12.7708	12.6269	0.298765	0.240449
12.7713	12.6274	0.302522	0.240328
12.7717	12.6279	0.301582	0.24134
12.7722	12.6283	0.30276	0.241205
12.7727	12.6288	0.301017	0.242949
12.7732	12.6293	0.301394	0.243209
12.7736	12.6297	0.301675	0.240587
12.7741	12.6302	0.302979	0.242204
12.7746	12.6307	0.302727	0.243194
12.7751	12.6312	0.301079	0.243001
12.7755	12.6316	0.302198	0.2425
12.776	12.6321	0.301667	0.239925
12.7765	12.6326	0.304443	0.241875
12.7769	12.633	0.30334	0.24171
12.7774	12.6335	0.304527	0.243548
12.7779	12.634	0.302431	0.241389
12.7784	12.6344	0.301525	0.241335
12.7788	12.6349	0.304882	0.242234
12.7793	12.6354	0.304751	0.244717
12.7798	12.6359	0.302981	0.244235
12.7802	12.6363	0.305362	0.245082
12.7807	12.6368	0.304426	0.244782
12.7812	12.6373	0.304037	0.244077
12.7817	12.6378	0.304093	0.245965
12.7821	12.6382	0.304703	0.248338
12.7826	12.6387	0.304384	0.248226
12.7831	12.6392	0.304867	0.247424
12.7836	12.6396	0.308026	0.248944
12.784	12.6401	0.305677	0.249002
12.7845	12.6406	0.305131	0.250533
12.785	12.641	0.307211	0.252019
12.7854	12.6415	0.307863	0.25008
12.7859	12.642	0.306908	0.249773
12.7864	12.6424	0.306498	0.251675
12.7869	12.6429	0.306733	0.252762
12.7873	12.6434	0.306095	0.24922
12.7878	12.6438	0.303531	0.2451
12.7883	12.6443	0.306776	0.248917
12.7887	12.6448	0.304537	0.247723
12.7892	12.6453	0.303445	0.247062
12.7897	12.6457	0.303277	0.246082
12.7902	12.6462	0.304801	0.243519
12.7906	12.6467	0.30689	0.241895
12.7911	12.6472	0.306448	0.24439
12.7916	12.6477	0.306734	0.244203
12.7921	12.6481	0.307947	0.242637
12.7925	12.6486	0.307515	0.240552
12.793	12.6491	0.310619	0.239374
12.7935	12.6495	0.308863	0.237516
12.7939	12.65	0.307475	0.235526
12.7944	12.6505	0.309472	0.234888
12.7949	12.651	0.310463	0.23179
12.7954	12.6515	0.308726	0.228862
12.7958	12.6519	0.31	0.22893
12.7963	12.6524	0.312027	0.228703
12.7968	12.6528	0.30938	0.225848
12.7972	12.6533	0.311307	0.22381
12.7977	12.6538	0.312771	0.22249
12.7982	12.6543	0.312206	0.222424
12.7987	12.6547	0.310594	0.220051
12.7991	12.6552	0.310543	0.218312
12.7996	12.6557	0.312249	0.216355
12.8001	12.6562	0.310989	0.216229
12.8006	12.6567	0.31088	0.215927
12.801	12.6571	0.310725	0.21564
12.8015	12.6576	0.310918	0.215159
12.802	12.6581	0.311369	0.214285
12.8024	12.6586	0.312765	0.214626
12.8029	12.659	0.311311	0.216538
12.8034	12.6595	0.310043	0.217178
12.8039	12.6599	0.311807	0.217928
12.8043	12.6604	0.313442	0.218055
12.8048	12.6609	0.31288	0.219639
12.8053	12.6614	0.314164	0.222472
12.8057	12.6618	0.313846	0.224108
12.8062	12.6623	0.312789	0.225472
12.8067	12.6628	0.314908	0.226182
12.8072	12.6632	0.315452	0.228573
12.8076	12.6637	0.313582	0.229804
12.8081	12.6642	0.313499	0.232149
12.8086	12.6646	0.312451	0.232428
12.8091	12.6651	0.31551	0.235011
12.8095	12.6656	0.312855	0.235075
12.81	12.6661	0.314756	0.239011
12.8105	12.6665	0.313923	0.242079
12.8109	12.667	0.313687	0.242684
12.8114	12.6675	0.313952	0.243361
12.8119	12.668	0.31616	0.247576
12.8124	12.6684	0.314609	0.249672
12.8128	12.6689	0.312749	0.250342
12.8133	12.6694	0.314282	0.253008
12.8138	12.6698	0.315386	0.253353
12.8142	12.6703	0.314988	0.256159
12.8147	12.6708	0.314698	0.258684
12.8152	12.6712	0.315337	0.262415
12.8157	12.6717	0.313393	0.26063
12.8161	12.6722	0.314699	0.261252
12.8166	12.6726	0.316871	0.265195
12.8171	12.6731	0.315894	0.265922
12.8176	12.6736	0.313252	0.267691
12.818	12.6741	0.314743	0.267726
12.8185	12.6745	0.317222	0.269337
12.819	12.675	0.315482	0.268889
12.8194	12.6755	0.316814	0.271796
12.8199	12.676	0.315565	0.274296
12.8204	12.6765	0.315709	0.271824
12.8209	12.6769	0.314865	0.271094
12.8213	12.6774	0.317564	0.273074
12.8218	12.6779	0.316399	0.273355
12.8223	12.6784	0.313734	0.272635
12.8227	12.6788	0.315346	0.271195
12.8232	12.6793	0.316003	0.271102
12.8237	12.6798	0.317027	0.269867
12.8242	12.6802	0.314229	0.268549
12.8246	12.6807	0.315982	0.268583
12.8251	12.6812	0.316287	0.264475
12.8256	12.6817	0.315832	0.262141
12.8261	12.6821	0.317447	0.26104
12.8265	12.6826	0.315957	0.258997
12.827	12.6831	0.314516	0.254854
12.8275	12.6835	0.314813	0.251986
12.8279	12.684	0.317042	0.250195
12.8284	12.6845	0.315079	0.246144
12.8289	12.685	0.314796	0.245403
12.8294	12.6854	0.316519	0.243531
12.8298	12.6859	0.315843	0.238293
12.8303	12.6864	0.316945	0.235051
12.8308	12.6869	0.317661	0.233657
12.8312	12.6874	0.317253	0.230923
12.8317	12.6878	0.315841	0.226916
12.8322	12.6883	0.316568	0.223688
12.8327	12.6888	0.318913	0.221147
12.8331	12.6892	0.315812	0.217989
12.8336	12.6897	0.318969	0.219721
12.8341	12.6902	0.317654	0.219623
12.8346	12.6906	0.315461	0.21761
12.835	12.6911	0.317248	0.220669
12.8355	12.6916	0.320046	0.224792
12.836	12.692	0.31731	0.229551
12.8364	12.6925	0.315414	0.232457
12.8369	12.693	0.317807	0.237317
12.8374	12.6934	0.317795	0.241782
12.8379	12.6939	0.316583	0.245744
12.8383	12.6944	0.318433	0.25234
12.8388	12.6948	0.317391	0.254571
12.8393	12.6953	0.316281	0.254092
12.8397	12.6958	0.316468	0.255857
12.8402	12.6963	0.318149	0.258409
12.8407	12.6968	0.31585	0.259094
12.8412	12.6972	0.315183	0.256349
12.8416	12.6977	0.316718	0.255962
12.8421	12.6982	0.317487	0.25185
12.8426	12.6986	0.315292	0.248229
12.8431	12.6991	0.317772	0.248948
12.8435	12.6996	0.317356	0.245312
12.844	12.7	0.317029	0.239463
12.8445	12.7005	0.317173	0.235837
12.8449	12.701	0.31788	0.232761
12.8454	12.7015	0.31557	0.229779
12.8459	12.7019	0.315438	0.227414
12.8464	12.7024	0.317357	0.224627
12.8468	12.7029	0.317122	0.222864
12.8473	12.7033	0.318077	0.222506
12.8478	12.7038	0.317233	0.224839
12.8482	12.7043	0.317945	0.22872
12.8487	12.7048	0.314981	0.231061
12.8492	12.7052	0.317258	0.236748
12.8497	12.7057	0.319179	0.245363
12.8501	12.7062	0.318403	0.254754
12.8506	12.7067	0.316331	0.26213
12.8511	12.7072	0.318332	0.272288
12.8516	12.7076	0.319747	0.283339
12.852	12.7081	0.317937	0.293475
12.8525	12.7086	0.319366	0.310028
12.853	12.7091	0.319856	0.323043
12.8534	12.7095	0.317982	0.334078
12.8539	12.71	0.320104	0.348172
12.8544	12.7105	0.319108	0.36404
12.8549	12.7109	0.320972	0.377495
12.8553	12.7114	0.319337	0.389874
12.8558	12.7119	0.318824	0.399173
12.8563	12.7123	0.321278	0.409579
12.8567	12.7128	0.319131	0.418865
12.8572	12.7133	0.318765	0.43064
12.8577	12.7137	0.318833	0.437902
12.8582	12.7142	0.317823	0.442414
12.8586	12.7147	0.319618	0.453208
12.8591	12.7152	0.319475	0.462041
12.8596	12.7157	0.318567	0.471162
12.8601	12.7161	0.319626	0.479668
12.8605	12.7166	0.318988	0.488545
12.861	12.7171	0.321604	0.495994
12.8615	12.7176	0.318765	0.502151
12.8619	12.718	0.317915	0.507461
12.8624	12.7185	0.318941	0.510211
12.8629	12.719	0.31597	0.500874
12.8634	12.7194	0.318138	0.499577
12.8638	12.7199	0.317816	0.496249
12.8643	12.7204	0.316256	0.493466
12.8648	12.7208	0.31466	0.488719
12.8652	12.7213	0.316752	0.489478
12.8657	12.7218	0.317552	0.499394
12.8662	12.7222	0.31672	0.511084
12.8667	12.7227	0.316893	0.535212
12.8671	12.7232	0.315435	0.569576
12.8676	12.7236	0.314305	0.607894
12.8681	12.7241	0.315866	0.656348
12.8686	12.7246	0.313084	0.707234
12.869	12.7251	0.312797	0.752892
12.8695	12.7255	0.31184	0.792581
12.87	12.726	0.313779	0.829272
12.8704	12.7265	0.31561	0.852284
12.8709	12.727	0.315007	0.874795
12.8714	12.7274	0.316397	0.892705
12.8719	12.7279	0.316695	0.90186
12.8723	12.7284	0.314049	0.907463
12.8728	12.7289	0.317978	0.915257
12.8733	12.7293	0.316559	0.925
12.8737	12.7298	0.317408	0.930661
12.8742	12.7303	0.314536	0.929395
12.8747	12.7307	0.317982	0.936427
12.8752	12.7312	0.316721	0.93845
12.8756	12.7317	0.31646	0.941713
12.8761	12.7322	0.31492	0.941142
12.8766	12.7326	0.317787	0.950933
12.8771	12.7331	0.314671	0.943668
12.8775	12.7336	0.316068	0.941791
12.878	12.734	0.317293	0.950824
12.8785	12.7345	0.318445	0.952275
12.8789	12.735	0.314708	0.949103
12.8794	12.7355	0.315725	0.947999
12.8799	12.736	0.319208	0.960447
12.8804	12.7364	0.31693	0.956617
12.8808	12.7369	0.317952	0.957987
12.8813	12.7374	0.318	0.960669
12.8818	12.7379	0.316903	0.958116
12.8822	12.7384	0.318533	0.959824
12.8827	12.7388	0.319381	0.963737
12.8832	12.7393	0.318558	0.967188
12.8837	12.7397	0.31566	0.958716
12.8841	12.7402	0.318097	0.961385
12.8846	12.7407	0.320219	0.962573
12.8851	12.7412	0.318226	0.962264
12.8856	12.7417	0.317944	0.965544
12.886	12.7421	0.317928	0.966615
12.8865	12.7426	0.316604	0.963087
12.887	12.743	0.319844	0.965929
12.8874	12.7435	0.320168	0.974557
12.8879	12.744	0.318509	0.971222
12.8884	12.7445	0.317275	0.965438
12.8889	12.7449	0.320127	0.971162
12.8893	12.7454	0.323539	0.978815
12.8898	12.7459	0.321119	0.979302
12.8903	12.7464	0.320369	0.97598
12.8907	12.7468	0.319158	0.973871
12.8912	12.7473	0.31858	0.968304
12.8917	12.7478	0.321877	0.973794
12.8922	12.7483	0.320431	0.977937
12.8926	12.7487	0.318917	0.971183
12.8931	12.7492	0.318479	0.970968
12.8936	12.7496	0.319722	0.977276
12.8941	12.7501	0.32179	0.974313
12.8945	12.7506	0.320319	0.976204
12.895	12.7511	0.321389	0.982905
12.8955	12.7515	0.32067	0.978324
12.8959	12.752	0.319293	0.972789
12.8964	12.7525	0.320178	0.974747
12.8969	12.7529	0.320669	0.980079
12.8974	12.7534	0.318803	0.974076
12.8978	12.7539	0.317451	0.972045
12.8983	12.7543	0.318165	0.972951
12.8988	12.7548	0.322109	0.977869
