# 1304     AichiSR QXAFS
# Start     : 8.9544
# End       : 9.0544
# Dir       : Forward
# Points    : 300
# ScanTime  : 1.01549
# Date      : 13.04.23 22:21
# Ring Cur. : 25.5[mA]
12.7557	12.7557	0.400626	1.22426
12.7562	12.7552	0.401275	1.22683
12.7566	12.7548	0.399473	1.22144
12.7571	12.7543	0.401032	1.22261
12.7576	12.7538	0.402203	1.22649
12.7581	12.7533	0.402034	1.22392
12.7585	12.7529	0.402011	1.22555
12.759	12.7524	0.401607	1.22057
12.7595	12.752	0.402671	1.22482
12.7599	12.7515	0.402471	1.22401
12.7604	12.751	0.401325	1.2288
12.7609	12.7505	0.402339	1.22273
12.7614	12.7501	0.40094	1.2189
12.7618	12.7496	0.401265	1.22055
12.7623	12.7491	0.40186	1.22422
12.7628	12.7487	0.401326	1.22629
12.7632	12.7482	0.401847	1.22088
12.7637	12.7477	0.403259	1.22279
12.7642	12.7473	0.40221	1.22371
12.7647	12.7468	0.401916	1.22527
12.7651	12.7463	0.401227	1.22479
12.7656	12.7458	0.401145	1.2174
12.7661	12.7454	0.400571	1.21715
12.7666	12.7449	0.402593	1.21989
12.767	12.7444	0.402032	1.22406
12.7675	12.7439	0.400559	1.2209
12.768	12.7435	0.401212	1.22122
12.7684	12.743	0.40103	1.21831
12.7689	12.7425	0.401755	1.21782
12.7694	12.7421	0.401731	1.22081
12.7699	12.7416	0.400612	1.22089
12.7703	12.7411	0.400558	1.21456
12.7708	12.7406	0.400892	1.21429
12.7713	12.7402	0.402674	1.21611
12.7717	12.7397	0.402518	1.21804
12.7722	12.7392	0.400768	1.2141
12.7727	12.7388	0.402024	1.21328
12.7732	12.7383	0.402145	1.21396
12.7736	12.7378	0.401542	1.21338
12.7741	12.7374	0.401844	1.21553
12.7746	12.7369	0.401175	1.21392
12.7751	12.7364	0.400457	1.2089
12.7755	12.7359	0.401188	1.2073
12.776	12.7354	0.40215	1.20699
12.7765	12.7349	0.402816	1.20784
12.7769	12.7345	0.402266	1.20653
12.7774	12.734	0.400917	1.20499
12.7779	12.7335	0.400879	1.20051
12.7784	12.733	0.401043	1.20049
12.7788	12.7326	0.402983	1.20178
12.7793	12.7321	0.401094	1.19992
12.7798	12.7317	0.400827	1.19078
12.7802	12.7312	0.400628	1.189
12.7807	12.7307	0.402036	1.18796
12.7812	12.7302	0.402441	1.18489
12.7817	12.7297	0.398816	1.1816
12.7821	12.7293	0.400423	1.17411
12.7826	12.7288	0.402292	1.16858
12.7831	12.7284	0.400385	1.16023
12.7836	12.7279	0.401763	1.15804
12.784	12.7274	0.399957	1.14727
12.7845	12.7269	0.398722	1.13168
12.785	12.7265	0.398985	1.1133
12.7854	12.726	0.398061	1.09271
12.7859	12.7255	0.397081	1.0637
12.7864	12.725	0.394907	1.02387
12.7869	12.7245	0.393801	0.975007
12.7873	12.7241	0.394256	0.918085
12.7878	12.7236	0.395376	0.857754
12.7883	12.7231	0.399362	0.804495
12.7887	12.7227	0.398206	0.747446
12.7892	12.7222	0.398927	0.696292
12.7897	12.7217	0.400468	0.659474
12.7902	12.7213	0.401159	0.638564
12.7906	12.7208	0.402334	0.626938
12.7911	12.7203	0.398456	0.620094
12.7916	12.7199	0.398519	0.617298
12.7921	12.7194	0.400243	0.621512
12.7925	12.7189	0.399031	0.62698
12.793	12.7185	0.39983	0.635244
12.7935	12.718	0.39877	0.635751
12.7939	12.7175	0.398124	0.632969
12.7944	12.717	0.398404	0.629564
12.7949	12.7166	0.399704	0.626182
12.7954	12.7161	0.399991	0.617045
12.7958	12.7156	0.397337	0.605522
12.7963	12.7151	0.398578	0.591923
12.7968	12.7147	0.399584	0.578842
12.7972	12.7142	0.399405	0.569932
12.7977	12.7137	0.399732	0.562955
12.7982	12.7132	0.396935	0.552783
12.7987	12.7128	0.398229	0.540067
12.7991	12.7123	0.39962	0.528805
12.7996	12.7118	0.4005	0.518338
12.8001	12.7114	0.398771	0.505287
12.8006	12.7109	0.398289	0.490092
12.801	12.7104	0.398822	0.475104
12.8015	12.7099	0.399196	0.458345
12.802	12.7095	0.398739	0.44298
12.8024	12.709	0.399006	0.427652
12.8029	12.7086	0.398232	0.41085
12.8034	12.7081	0.397373	0.391905
12.8039	12.7076	0.398237	0.376166
12.8043	12.7071	0.398073	0.361731
12.8048	12.7066	0.397745	0.348526
12.8053	12.7062	0.396137	0.335232
12.8057	12.7057	0.397864	0.321544
12.8062	12.7052	0.397599	0.309954
12.8067	12.7047	0.399603	0.301576
12.8072	12.7042	0.398891	0.294499
12.8076	12.7038	0.399151	0.287989
12.8081	12.7033	0.397172	0.282977
12.8086	12.7028	0.397493	0.279388
12.8091	12.7024	0.396768	0.279292
12.8095	12.7019	0.397602	0.281272
12.81	12.7014	0.396157	0.282894
12.8105	12.7009	0.39701	0.285058
12.8109	12.7005	0.39821	0.288511
12.8114	12.7	0.395853	0.292661
12.8119	12.6995	0.397666	0.298943
12.8124	12.6991	0.395693	0.302997
12.8128	12.6986	0.397132	0.305764
12.8133	12.6981	0.395365	0.309346
12.8138	12.6977	0.397964	0.314534
12.8142	12.6972	0.398074	0.318876
12.8147	12.6967	0.395813	0.320067
12.8152	12.6962	0.396374	0.320112
12.8157	12.6958	0.397304	0.322185
12.8161	12.6953	0.394985	0.320802
12.8166	12.6948	0.39913	0.320682
12.8171	12.6943	0.396777	0.318097
12.8176	12.6939	0.395272	0.313001
12.818	12.6934	0.397192	0.30845
12.8185	12.6929	0.39726	0.30485
12.819	12.6925	0.397368	0.299656
12.8194	12.692	0.395313	0.294112
12.8199	12.6915	0.395741	0.28572
12.8204	12.6911	0.396495	0.281418
12.8209	12.6906	0.394445	0.277651
12.8213	12.6901	0.394757	0.276268
12.8218	12.6897	0.394116	0.273152
12.8223	12.6892	0.393836	0.269892
12.8227	12.6887	0.394914	0.271204
12.8232	12.6883	0.396315	0.273529
12.8237	12.6878	0.394247	0.277988
12.8242	12.6873	0.392454	0.280735
12.8246	12.6868	0.392742	0.282784
12.8251	12.6864	0.394598	0.286314
12.8256	12.6859	0.393647	0.290592
12.8261	12.6854	0.393514	0.297833
12.8265	12.6849	0.39225	0.300686
12.827	12.6844	0.392868	0.300586
12.8275	12.684	0.392929	0.305206
12.8279	12.6835	0.392125	0.309456
12.8284	12.683	0.393579	0.313758
12.8289	12.6826	0.392112	0.316009
12.8294	12.6821	0.392449	0.317043
12.8298	12.6816	0.394738	0.321272
12.8303	12.6812	0.394077	0.324332
12.8308	12.6807	0.393342	0.328652
12.8312	12.6802	0.394254	0.330113
12.8317	12.6797	0.391772	0.331282
12.8322	12.6793	0.39572	0.334252
12.8327	12.6788	0.395433	0.336951
12.8331	12.6783	0.39483	0.339572
12.8336	12.6779	0.393048	0.339979
12.8341	12.6774	0.394168	0.339109
12.8346	12.6769	0.394366	0.338894
12.835	12.6764	0.392958	0.339601
12.8355	12.6759	0.392861	0.340387
12.836	12.6755	0.394244	0.338843
12.8364	12.675	0.392453	0.335656
12.8369	12.6745	0.393278	0.335865
12.8374	12.674	0.394498	0.336515
12.8379	12.6735	0.392223	0.334968
12.8383	12.6731	0.392194	0.333498
12.8388	12.6726	0.392544	0.332641
12.8393	12.6721	0.394233	0.330999
12.8397	12.6717	0.392551	0.329771
12.8402	12.6712	0.394434	0.328743
12.8407	12.6707	0.392827	0.326082
12.8412	12.6703	0.392766	0.321683
12.8416	12.6698	0.394068	0.321026
12.8421	12.6693	0.392919	0.318409
12.8426	12.6689	0.393663	0.317135
12.8431	12.6684	0.392181	0.31296
12.8435	12.6679	0.392391	0.308505
12.844	12.6675	0.394267	0.306615
12.8445	12.667	0.392522	0.306613
12.8449	12.6665	0.39139	0.304744
12.8454	12.666	0.391844	0.301558
12.8459	12.6656	0.390831	0.297687
12.8464	12.6651	0.39205	0.294795
12.8468	12.6646	0.392676	0.29474
12.8473	12.6641	0.39027	0.292617
12.8478	12.6637	0.390778	0.288552
12.8482	12.6632	0.391023	0.285154
12.8487	12.6627	0.39099	0.284089
12.8492	12.6623	0.390501	0.281674
12.8497	12.6618	0.390149	0.282734
12.8501	12.6613	0.389868	0.279605
12.8506	12.6609	0.389679	0.275114
12.8511	12.6604	0.391486	0.273909
12.8516	12.6599	0.390104	0.273434
12.852	12.6594	0.388782	0.271871
12.8525	12.659	0.388576	0.269439
12.853	12.6585	0.387142	0.268076
12.8534	12.6581	0.389417	0.26749
12.8539	12.6576	0.389017	0.268401
12.8544	12.6571	0.388847	0.26881
12.8549	12.6566	0.387034	0.267449
12.8553	12.6561	0.387278	0.265855
12.8558	12.6557	0.388562	0.26825
12.8563	12.6552	0.389422	0.269842
12.8567	12.6547	0.387752	0.27156
12.8572	12.6542	0.388321	0.272985
12.8577	12.6537	0.387179	0.272959
12.8582	12.6533	0.390245	0.276047
12.8586	12.6528	0.389185	0.278605
12.8591	12.6523	0.388478	0.28106
12.8596	12.6519	0.387778	0.283597
12.8601	12.6514	0.38712	0.283626
12.8605	12.6509	0.38874	0.285302
12.861	12.6504	0.387824	0.289793
12.8615	12.65	0.387971	0.292768
12.8619	12.6495	0.386539	0.294421
12.8624	12.649	0.385608	0.295222
12.8629	12.6486	0.388984	0.298052
12.8634	12.6481	0.385856	0.30006
12.8638	12.6476	0.385495	0.302818
12.8643	12.6471	0.384852	0.302951
12.8648	12.6467	0.382523	0.302363
12.8652	12.6462	0.386907	0.306716
12.8657	12.6457	0.38727	0.308836
12.8662	12.6452	0.382044	0.308288
12.8667	12.6447	0.383828	0.308811
12.8671	12.6443	0.384313	0.308989
12.8676	12.6438	0.384627	0.311601
12.8681	12.6433	0.384685	0.312688
12.8686	12.6429	0.384643	0.314176
12.869	12.6424	0.386011	0.314199
12.8695	12.642	0.384809	0.312006
12.87	12.6415	0.385966	0.312879
12.8704	12.641	0.386668	0.316133
12.8709	12.6405	0.384386	0.315706
12.8714	12.6401	0.386089	0.313553
12.8719	12.6396	0.386134	0.313644
12.8723	12.6391	0.386498	0.312966
12.8728	12.6387	0.385361	0.313514
12.8733	12.6382	0.385205	0.313249
12.8737	12.6377	0.386354	0.312502
12.8742	12.6373	0.385459	0.309309
12.8747	12.6368	0.385366	0.309378
12.8752	12.6363	0.386415	0.310373
12.8756	12.6358	0.386598	0.311004
12.8761	12.6354	0.38695	0.308973
12.8766	12.6349	0.385808	0.307792
12.8771	12.6344	0.38605	0.308507
12.8775	12.6339	0.385356	0.307749
12.878	12.6335	0.38596	0.309233
12.8785	12.633	0.387337	0.306904
12.8789	12.6325	0.385809	0.305459
12.8794	12.6321	0.38861	0.307761
12.8799	12.6316	0.38716	0.309241
12.8804	12.6311	0.387101	0.309684
12.8808	12.6306	0.38533	0.308158
12.8813	12.6302	0.387697	0.30864
12.8818	12.6297	0.38809	0.308966
12.8822	12.6292	0.386467	0.311432
12.8827	12.6288	0.386686	0.311123
12.8832	12.6283	0.386043	0.310685
12.8837	12.6278	0.385978	0.308736
12.8841	12.6273	0.388826	0.308334
12.8846	12.6269	0.387897	0.310298
12.8851	12.6264	0.386487	0.311034
12.8856	12.6259	0.385708	0.309389
12.886	12.6254	0.387632	0.307416
12.8865	12.6249	0.387225	0.306804
12.887	12.6245	0.38737	0.306929
12.8874	12.624	0.388649	0.307487
12.8879	12.6235	0.388078	0.304774
12.8884	12.6231	0.386171	0.302598
12.8889	12.6226	0.388138	0.303516
12.8893	12.6221	0.389275	0.303981
12.8898	12.6217	0.38645	0.303462
12.8903	12.6212	0.385718	0.301545
12.8907	12.6207	0.386907	0.298957
12.8912	12.6202	0.387688	0.301663
12.8917	12.6197	0.387652	0.302151
12.8922	12.6193	0.386558	0.302279
12.8926	12.6188	0.388932	0.300722
12.8931	12.6183	0.387144	0.300489
12.8936	12.6179	0.38702	0.301925
12.8941	12.6174	0.388592	0.302049
12.8945	12.6169	0.3859	0.301363
12.895	12.6164	0.386947	0.300203
12.8955	12.616	0.388554	0.301109
12.8959	12.6155	0.388267	0.300988
12.8964	12.615	0.388306	0.301217
12.8969	12.6145	0.386335	0.302282
12.8974	12.6141	0.388327	0.300145
12.8978	12.6136	0.386806	0.298522
12.8983	12.6131	0.387434	0.297138
12.8988	12.6127	0.389359	0.29984
