# 1304     AichiSR QXAFS
# Start     : 8.9544
# End       : 9.0544
# Dir       : Backward
# Points    : 300
# ScanTime  : 1.01549
# Date      : 13.04.23 22:21
# Ring Cur. : 25.5[mA]
12.7557	12.6117	0.303945	0.233088
12.7562	12.6122	0.303073	0.232436
12.7566	12.6127	0.305526	0.234636
12.7571	12.6131	0.308933	0.236612
12.7576	12.6136	0.307203	0.237259
12.7581	12.6141	0.306386	0.238896
12.7585	12.6145	0.309089	0.238953
12.759	12.615	0.306366	0.23819
12.7595	12.6155	0.30722	0.238992
12.7599	12.616	0.309562	0.239978
12.7604	12.6164	0.307649	0.239469
12.7609	12.6169	0.307283	0.238903
12.7614	12.6174	0.308065	0.239525
12.7618	12.6179	0.309736	0.241995
12.7623	12.6183	0.308148	0.241553
12.7628	12.6188	0.306913	0.241788
12.7632	12.6193	0.308417	0.240327
12.7637	12.6197	0.31018	0.240228
12.7642	12.6202	0.310485	0.241452
12.7647	12.6207	0.308441	0.241296
12.7651	12.6212	0.307525	0.240477
12.7656	12.6217	0.30712	0.239987
12.7661	12.6221	0.309858	0.242125
12.7666	12.6226	0.310026	0.242921
12.767	12.623	0.309475	0.24371
12.7675	12.6235	0.307543	0.24413
12.768	12.624	0.309677	0.24359
12.7684	12.6245	0.307412	0.242186
12.7689	12.6249	0.307199	0.243092
12.7694	12.6254	0.310104	0.247295
12.7699	12.6259	0.308022	0.246406
12.7703	12.6264	0.307596	0.245509
12.7708	12.6269	0.309214	0.246545
12.7713	12.6273	0.311496	0.248795
12.7717	12.6278	0.311277	0.248649
12.7722	12.6283	0.307758	0.248386
12.7727	12.6288	0.310717	0.247916
12.7732	12.6292	0.311086	0.247134
12.7736	12.6297	0.310296	0.247791
12.7741	12.6301	0.310362	0.248871
12.7746	12.6306	0.308786	0.248559
12.7751	12.6311	0.307337	0.246811
12.7755	12.6316	0.310025	0.246629
12.776	12.632	0.310791	0.246775
12.7765	12.6325	0.31001	0.248497
12.7769	12.633	0.308227	0.248523
12.7774	12.6334	0.309248	0.246952
12.7779	12.6339	0.31147	0.247181
12.7784	12.6344	0.311936	0.247883
12.7788	12.6349	0.312649	0.251878
12.7793	12.6353	0.310868	0.250375
12.7798	12.6358	0.308701	0.24749
12.7802	12.6363	0.310636	0.249807
12.7807	12.6368	0.312845	0.251529
12.7812	12.6372	0.311312	0.251308
12.7817	12.6377	0.310771	0.252823
12.7821	12.6382	0.309955	0.250467
12.7826	12.6386	0.311617	0.250715
12.7831	12.6391	0.310905	0.252767
12.7836	12.6396	0.31286	0.256165
12.784	12.64	0.310433	0.254818
12.7845	12.6405	0.309432	0.252677
12.785	12.641	0.314076	0.253778
12.7854	12.6415	0.313627	0.255647
12.7859	12.6419	0.312279	0.255917
12.7864	12.6424	0.311673	0.256654
12.7869	12.6428	0.31158	0.253322
12.7873	12.6433	0.310943	0.252004
12.7878	12.6438	0.3099	0.252081
12.7883	12.6442	0.312593	0.25373
12.7887	12.6447	0.309586	0.25149
12.7892	12.6452	0.307031	0.247423
12.7897	12.6457	0.309861	0.249415
12.7902	12.6462	0.310886	0.250364
12.7906	12.6467	0.310461	0.248453
12.7911	12.6471	0.310397	0.247542
12.7916	12.6476	0.311944	0.246005
12.7921	12.6481	0.312732	0.244707
12.7925	12.6486	0.313482	0.243626
12.793	12.649	0.314683	0.245814
12.7935	12.6495	0.313594	0.242122
12.7939	12.65	0.31158	0.237906
12.7944	12.6504	0.313163	0.236111
12.7949	12.6509	0.313801	0.235208
12.7954	12.6514	0.312486	0.234558
12.7958	12.6519	0.313915	0.234208
12.7963	12.6523	0.314704	0.229586
12.7968	12.6528	0.31354	0.227668
12.7972	12.6533	0.315532	0.226112
12.7977	12.6537	0.316872	0.227062
12.7982	12.6542	0.315331	0.22433
12.7987	12.6547	0.313783	0.220191
12.7991	12.6552	0.31692	0.219439
12.7996	12.6557	0.315191	0.220988
12.8001	12.6561	0.315913	0.220439
12.8006	12.6566	0.315636	0.219761
12.801	12.6571	0.314919	0.216124
12.8015	12.6576	0.316103	0.216276
12.802	12.658	0.314965	0.216738
12.8024	12.6585	0.316433	0.218245
12.8029	12.659	0.315119	0.218512
12.8034	12.6594	0.313206	0.217217
12.8039	12.6599	0.316305	0.218493
12.8043	12.6604	0.315857	0.221214
12.8048	12.6608	0.314683	0.223551
12.8053	12.6613	0.318624	0.226267
12.8057	12.6618	0.316759	0.225289
12.8062	12.6623	0.31702	0.226192
12.8067	12.6627	0.316401	0.228575
12.8072	12.6632	0.31753	0.232624
12.8076	12.6636	0.316827	0.233308
12.8081	12.6641	0.314784	0.232149
12.8086	12.6646	0.316885	0.234777
12.8091	12.6651	0.317883	0.238325
12.8095	12.6655	0.314464	0.23835
12.81	12.666	0.316741	0.24191
12.8105	12.6665	0.317819	0.242726
12.8109	12.667	0.317645	0.244416
12.8114	12.6675	0.318027	0.247151
12.8119	12.6679	0.319571	0.250958
12.8124	12.6684	0.318469	0.251756
12.8128	12.6689	0.317169	0.250456
12.8133	12.6693	0.320278	0.254715
12.8138	12.6698	0.318562	0.25719
12.8142	12.6702	0.316603	0.258494
12.8147	12.6707	0.316354	0.261678
12.8152	12.6712	0.31958	0.262451
12.8157	12.6717	0.317979	0.260748
12.8161	12.6721	0.317137	0.266065
12.8166	12.6726	0.318919	0.2698
12.8171	12.6731	0.317996	0.267066
12.8176	12.6735	0.316324	0.269135
12.818	12.674	0.320887	0.270955
12.8185	12.6745	0.319448	0.272362
12.819	12.675	0.317017	0.274058
12.8194	12.6754	0.31721	0.274867
12.8199	12.6759	0.318689	0.274606
12.8204	12.6764	0.319112	0.273485
12.8209	12.6769	0.318731	0.275171
12.8213	12.6774	0.316466	0.276781
12.8218	12.6778	0.317851	0.274271
12.8223	12.6783	0.318067	0.272511
12.8227	12.6788	0.320568	0.274246
12.8232	12.6792	0.317008	0.27215
12.8237	12.6797	0.31824	0.27304
12.8242	12.6802	0.319102	0.272948
12.8246	12.6807	0.318245	0.268956
12.8251	12.6811	0.318868	0.26514
12.8256	12.6816	0.31891	0.264507
12.8261	12.6821	0.319817	0.263499
12.8265	12.6825	0.316877	0.260286
12.827	12.683	0.316519	0.255005
12.8275	12.6835	0.31811	0.253319
12.8279	12.684	0.31691	0.251551
12.8284	12.6844	0.317345	0.250484
12.8289	12.6849	0.315706	0.247178
12.8294	12.6854	0.317801	0.242548
12.8298	12.6859	0.318965	0.240007
12.8303	12.6864	0.318484	0.238667
12.8308	12.6868	0.318031	0.234991
12.8312	12.6873	0.319199	0.231924
12.8317	12.6878	0.318377	0.22674
12.8322	12.6883	0.318735	0.224281
12.8327	12.6887	0.318852	0.222172
12.8331	12.6892	0.318816	0.221934
12.8336	12.6896	0.318789	0.220928
12.8341	12.6901	0.318536	0.219129
12.8346	12.6906	0.320061	0.220218
12.835	12.6911	0.316741	0.223909
12.8355	12.6915	0.319804	0.228473
12.836	12.692	0.318326	0.229758
12.8364	12.6925	0.317298	0.232445
12.8369	12.6929	0.320448	0.239525
12.8374	12.6934	0.31934	0.243947
12.8379	12.6939	0.317984	0.248612
12.8383	12.6943	0.319706	0.251629
12.8388	12.6948	0.318104	0.252857
12.8393	12.6953	0.317881	0.254921
12.8397	12.6958	0.318715	0.258977
12.8402	12.6962	0.319055	0.261421
12.8407	12.6967	0.316967	0.257527
12.8412	12.6972	0.315464	0.25594
12.8416	12.6977	0.321659	0.257985
12.8421	12.6981	0.321269	0.257377
12.8426	12.6986	0.317762	0.251674
12.8431	12.6991	0.318686	0.2484
12.8435	12.6995	0.317691	0.243891
12.844	12.7	0.318217	0.239754
12.8445	12.7005	0.3184	0.237665
12.8449	12.7009	0.318541	0.235841
12.8454	12.7014	0.31811	0.230685
12.8459	12.7019	0.317096	0.227766
12.8464	12.7023	0.318329	0.225708
12.8468	12.7028	0.318565	0.225241
12.8473	12.7033	0.31654	0.22588
12.8478	12.7037	0.317848	0.225847
12.8482	12.7042	0.318404	0.227817
12.8487	12.7047	0.319257	0.231933
12.8492	12.7052	0.319779	0.238863
12.8497	12.7057	0.321307	0.247711
12.8501	12.7062	0.320404	0.255325
12.8506	12.7066	0.318333	0.260538
12.8511	12.7071	0.320611	0.273951
12.8516	12.7076	0.321989	0.28786
12.852	12.7081	0.320784	0.298352
12.8525	12.7085	0.320771	0.310723
12.853	12.709	0.320824	0.324693
12.8534	12.7095	0.322021	0.337258
12.8539	12.7099	0.320925	0.350164
12.8544	12.7104	0.322442	0.36711
12.8549	12.7109	0.32378	0.380778
12.8553	12.7114	0.321816	0.389694
12.8558	12.7118	0.323268	0.402501
12.8563	12.7123	0.32271	0.416015
12.8567	12.7128	0.322366	0.425737
12.8572	12.7132	0.323358	0.435122
12.8577	12.7137	0.324029	0.442092
12.8582	12.7142	0.322135	0.447941
12.8586	12.7147	0.323293	0.459708
12.8591	12.7151	0.322917	0.470564
12.8596	12.7156	0.32208	0.477841
12.8601	12.7161	0.322836	0.482521
12.8605	12.7166	0.325172	0.494401
12.861	12.717	0.323071	0.505237
12.8615	12.7175	0.322652	0.509108
12.8619	12.718	0.323368	0.514339
12.8624	12.7185	0.324029	0.514728
12.8629	12.7189	0.324961	0.510049
12.8634	12.7194	0.322432	0.508491
12.8638	12.7198	0.325092	0.509124
12.8643	12.7203	0.323027	0.500616
12.8648	12.7208	0.322897	0.500264
12.8652	12.7213	0.324104	0.503942
12.8657	12.7217	0.323428	0.511175
12.8662	12.7222	0.320025	0.524842
12.8667	12.7227	0.323113	0.547459
12.8671	12.7231	0.323563	0.581361
12.8676	12.7236	0.321901	0.614926
12.8681	12.7241	0.321336	0.670933
12.8686	12.7245	0.322034	0.725797
12.869	12.725	0.320041	0.768246
12.8695	12.7255	0.319852	0.808977
12.87	12.726	0.322612	0.846538
12.8704	12.7264	0.322757	0.875409
12.8709	12.7269	0.321071	0.89342
12.8714	12.7274	0.321515	0.912015
12.8719	12.7279	0.324392	0.923196
12.8723	12.7283	0.324483	0.930292
12.8728	12.7288	0.32543	0.941405
12.8733	12.7293	0.324093	0.951727
12.8737	12.7297	0.32497	0.951063
12.8742	12.7302	0.326199	0.957721
12.8747	12.7307	0.326713	0.960512
12.8752	12.7312	0.326588	0.966509
12.8756	12.7316	0.324474	0.966741
12.8761	12.7321	0.324339	0.966606
12.8766	12.7326	0.325957	0.97287
12.8771	12.733	0.326402	0.971043
12.8775	12.7335	0.325095	0.972279
12.878	12.734	0.326203	0.981457
12.8785	12.7345	0.326623	0.981079
12.8789	12.7349	0.327359	0.978768
12.8794	12.7354	0.32742	0.982365
12.8799	12.7359	0.328862	0.989234
12.8804	12.7364	0.327246	0.98974
12.8808	12.7369	0.32667	0.984773
12.8813	12.7374	0.328806	0.990418
12.8818	12.7378	0.328812	0.991245
12.8822	12.7383	0.327183	0.987926
12.8827	12.7388	0.329113	0.994176
12.8832	12.7392	0.329211	0.994926
12.8837	12.7397	0.326793	0.988708
12.8841	12.7402	0.33019	0.995965
12.8846	12.7406	0.329546	0.998583
12.8851	12.7411	0.327866	0.997535
12.8856	12.7416	0.329415	0.996489
12.886	12.7421	0.33181	1.00393
12.8865	12.7425	0.329489	0.998866
12.887	12.743	0.329809	1.00023
12.8874	12.7435	0.329431	1.00661
12.8879	12.7439	0.330354	1.00364
12.8884	12.7444	0.329652	0.99949
12.8889	12.7449	0.330372	1.00472
12.8893	12.7454	0.33129	1.00826
12.8898	12.7458	0.329656	1.00639
12.8903	12.7463	0.33109	1.00266
12.8907	12.7468	0.332275	1.00788
12.8912	12.7473	0.330366	1.00642
12.8917	12.7477	0.331718	1.00745
12.8922	12.7482	0.334102	1.01532
12.8926	12.7487	0.333405	1.0117
12.8931	12.7491	0.330413	1.00655
12.8936	12.7496	0.334008	1.01285
12.8941	12.7501	0.332416	1.01473
12.8945	12.7505	0.331035	1.01248
12.895	12.751	0.3325	1.01516
12.8955	12.7515	0.333223	1.01413
12.8959	12.752	0.332247	1.00629
12.8964	12.7524	0.332639	1.01229
12.8969	12.7529	0.333405	1.01833
12.8974	12.7533	0.332335	1.01286
12.8978	12.7538	0.332878	1.00868
12.8983	12.7543	0.333149	1.01552
12.8988	12.7548	0.333491	1.0187
