# 1304     AichiSR QXAFS
# Start     : 8.9544
# End       : 9.0544
# Dir       : Forward
# Points    : 300
# ScanTime  : 1.01549
# Date      : 13.04.23 22:22
# Ring Cur. : 25.4[mA]
12.7557	12.7557	0.401995	1.22183
12.7562	12.7552	0.402503	1.22647
12.7566	12.7548	0.40234	1.22503
12.7571	12.7543	0.402428	1.22558
12.7576	12.7538	0.402858	1.22303
12.7581	12.7533	0.402113	1.22524
12.7585	12.7529	0.40327	1.22733
12.759	12.7524	0.401803	1.22737
12.7595	12.752	0.402246	1.22531
12.7599	12.7515	0.402128	1.22313
12.7604	12.751	0.403364	1.22457
12.7609	12.7505	0.40213	1.22688
12.7614	12.7501	0.401166	1.22405
12.7618	12.7496	0.402144	1.22349
12.7623	12.7491	0.402076	1.22275
12.7628	12.7487	0.402612	1.22431
12.7632	12.7482	0.403154	1.22572
12.7637	12.7477	0.40263	1.22678
12.7642	12.7473	0.401614	1.22267
12.7647	12.7468	0.403427	1.22341
12.7651	12.7463	0.402427	1.22357
12.7656	12.7458	0.40205	1.22415
12.7661	12.7454	0.400769	1.22587
12.7666	12.7449	0.402153	1.22174
12.767	12.7444	0.403666	1.22115
12.7675	12.7439	0.40245	1.22036
12.768	12.7435	0.40378	1.22069
12.7684	12.743	0.399774	1.22315
12.7689	12.7425	0.401058	1.21925
12.7694	12.7421	0.401821	1.21976
12.7699	12.7416	0.401574	1.22284
12.7703	12.7411	0.402242	1.22178
12.7708	12.7406	0.401788	1.22166
12.7713	12.7402	0.401752	1.21608
12.7717	12.7397	0.403516	1.21589
12.7722	12.7392	0.403752	1.21626
12.7727	12.7388	0.403405	1.22017
12.7732	12.7383	0.401216	1.21716
12.7736	12.7378	0.403134	1.2138
12.7741	12.7374	0.402704	1.21428
12.7746	12.7369	0.402846	1.2148
12.7751	12.7364	0.403977	1.21375
12.7755	12.7359	0.401227	1.21478
12.776	12.7354	0.401349	1.20788
12.7765	12.7349	0.401042	1.20571
12.7769	12.7345	0.403382	1.20609
12.7774	12.734	0.402251	1.20831
12.7779	12.7335	0.400448	1.20473
12.7784	12.733	0.400463	1.20072
12.7788	12.7326	0.402106	1.19757
12.7793	12.7321	0.403095	1.19743
12.7798	12.7317	0.402599	1.19702
12.7802	12.7312	0.400522	1.19384
12.7807	12.7307	0.401585	1.18787
12.7812	12.7302	0.40124	1.18087
12.7817	12.7297	0.401074	1.17947
12.7821	12.7293	0.401002	1.17871
12.7826	12.7288	0.401486	1.17705
12.7831	12.7284	0.40161	1.16421
12.7836	12.7279	0.402146	1.15861
12.784	12.7274	0.401193	1.14794
12.7845	12.7269	0.401528	1.13801
12.785	12.7265	0.397235	1.11748
12.7854	12.726	0.39687	1.09279
12.7859	12.7255	0.396287	1.0652
12.7864	12.725	0.395142	1.02617
12.7869	12.7245	0.395497	0.982258
12.7873	12.7241	0.394415	0.928536
12.7878	12.7236	0.397078	0.863471
12.7883	12.7231	0.399318	0.801342
12.7887	12.7227	0.400822	0.75113
12.7892	12.7222	0.400879	0.702331
12.7897	12.7218	0.39854	0.66657
12.7902	12.7213	0.399345	0.639834
12.7906	12.7208	0.400533	0.625696
12.7911	12.7203	0.401212	0.619963
12.7916	12.7199	0.399994	0.621978
12.7921	12.7194	0.399206	0.622503
12.7925	12.7189	0.398718	0.626775
12.793	12.7185	0.399931	0.630554
12.7935	12.718	0.399034	0.634977
12.7939	12.7175	0.401079	0.636552
12.7944	12.7171	0.398026	0.631148
12.7949	12.7166	0.400402	0.626864
12.7954	12.7161	0.400441	0.614267
12.7958	12.7156	0.399415	0.60715
12.7963	12.7151	0.399766	0.595776
12.7968	12.7147	0.398092	0.583908
12.7972	12.7142	0.399199	0.570509
12.7977	12.7137	0.400281	0.561841
12.7982	12.7132	0.399883	0.552967
12.7987	12.7128	0.39955	0.54368
12.7991	12.7123	0.397562	0.530595
12.7996	12.7118	0.400421	0.517237
12.8001	12.7114	0.399132	0.503272
12.8006	12.7109	0.399079	0.490242
12.801	12.7104	0.398906	0.478472
12.8015	12.7099	0.398679	0.462906
12.802	12.7095	0.399797	0.442499
12.8024	12.709	0.400912	0.427017
12.8029	12.7086	0.40018	0.412094
12.8034	12.7081	0.400537	0.39686
12.8039	12.7076	0.399832	0.378895
12.8043	12.7071	0.39851	0.363672
12.8048	12.7066	0.399462	0.347869
12.8053	12.7062	0.398831	0.334313
12.8057	12.7057	0.397118	0.323964
12.8062	12.7052	0.398516	0.311294
12.8067	12.7047	0.39673	0.301254
12.8072	12.7042	0.399066	0.293724
12.8076	12.7038	0.39972	0.289266
12.8081	12.7033	0.398832	0.28488
12.8086	12.7028	0.396713	0.281758
12.8091	12.7024	0.397347	0.279328
12.8095	12.7019	0.400932	0.28003
12.81	12.7014	0.399019	0.281017
12.8105	12.701	0.397974	0.287456
12.8109	12.7005	0.396663	0.289092
12.8114	12.7	0.395808	0.291991
12.8119	12.6995	0.3981	0.296842
12.8124	12.6991	0.396895	0.303475
12.8128	12.6986	0.396303	0.307475
12.8133	12.6981	0.395587	0.311459
12.8138	12.6977	0.396862	0.313843
12.8142	12.6972	0.397322	0.315632
12.8147	12.6967	0.397155	0.319443
12.8152	12.6962	0.397482	0.322304
12.8157	12.6958	0.397481	0.322265
12.8161	12.6953	0.395831	0.32044
12.8166	12.6948	0.398135	0.31872
12.8171	12.6943	0.396433	0.318132
12.8176	12.6939	0.396615	0.315059
12.818	12.6934	0.39479	0.309102
12.8185	12.6929	0.39488	0.303739
12.819	12.6925	0.396622	0.297829
12.8194	12.692	0.398539	0.294699
12.8199	12.6915	0.39569	0.289838
12.8204	12.6911	0.397034	0.282068
12.8209	12.6906	0.395619	0.276492
12.8213	12.6901	0.396961	0.273001
12.8218	12.6897	0.3973	0.272659
12.8223	12.6892	0.396225	0.273696
12.8227	12.6887	0.393765	0.27285
12.8232	12.6883	0.396092	0.27341
12.8237	12.6878	0.395489	0.275642
12.8242	12.6873	0.395147	0.280733
12.8246	12.6868	0.396508	0.285867
12.8251	12.6864	0.39298	0.288452
12.8256	12.6859	0.393267	0.290923
12.8261	12.6854	0.393634	0.293121
12.8265	12.6849	0.393277	0.2992
12.827	12.6844	0.393525	0.304994
12.8275	12.684	0.392139	0.307784
12.8279	12.6835	0.39223	0.308866
12.8284	12.683	0.394146	0.311552
12.8289	12.6826	0.394166	0.315709
12.8294	12.6821	0.393842	0.321156
12.8298	12.6816	0.395018	0.320832
12.8303	12.6811	0.392242	0.323205
12.8308	12.6807	0.395349	0.327519
12.8312	12.6802	0.394535	0.329999
12.8317	12.6797	0.393544	0.334142
12.8322	12.6793	0.393151	0.335276
12.8327	12.6788	0.393132	0.336246
12.8331	12.6783	0.396071	0.337588
12.8336	12.6779	0.394135	0.34013
12.8341	12.6774	0.395007	0.342618
12.8346	12.6769	0.395245	0.341694
12.835	12.6764	0.392503	0.33894
12.8355	12.6759	0.393524	0.338571
12.836	12.6755	0.394797	0.340165
12.8364	12.675	0.393835	0.338461
12.8369	12.6745	0.392055	0.33723
12.8374	12.674	0.3925	0.334926
12.8379	12.6735	0.393004	0.333823
12.8383	12.6731	0.393713	0.334802
12.8388	12.6726	0.392219	0.333026
12.8393	12.6722	0.393829	0.330566
12.8397	12.6717	0.392236	0.327722
12.8402	12.6712	0.395495	0.32699
12.8407	12.6707	0.393971	0.327236
12.8412	12.6703	0.392705	0.32413
12.8416	12.6698	0.392579	0.321704
12.8421	12.6693	0.391413	0.317701
12.8426	12.6689	0.394414	0.315633
12.8431	12.6684	0.391741	0.315768
12.8435	12.6679	0.392145	0.312385
12.844	12.6675	0.391501	0.30842
12.8445	12.667	0.390909	0.304422
12.8449	12.6665	0.392937	0.304175
12.8454	12.666	0.392626	0.302014
12.8459	12.6656	0.390647	0.299858
12.8464	12.6651	0.393036	0.29656
12.8468	12.6646	0.391178	0.292409
12.8473	12.6641	0.391753	0.291694
12.8478	12.6637	0.39357	0.289668
12.8482	12.6632	0.390397	0.287465
12.8487	12.6627	0.390231	0.285026
12.8492	12.6623	0.391149	0.282086
12.8497	12.6618	0.392239	0.280449
12.8501	12.6613	0.391143	0.280694
12.8506	12.6609	0.389737	0.277557
12.8511	12.6604	0.389702	0.275352
12.8516	12.6599	0.389113	0.271826
12.852	12.6594	0.390158	0.270637
12.8525	12.659	0.389708	0.270251
12.853	12.6585	0.388314	0.270294
12.8534	12.6581	0.389721	0.268662
12.8539	12.6576	0.386812	0.266084
12.8544	12.6571	0.388806	0.266152
12.8549	12.6566	0.388621	0.269142
12.8553	12.6561	0.388525	0.269415
12.8558	12.6557	0.388131	0.267795
12.8563	12.6552	0.388065	0.268006
12.8567	12.6547	0.390227	0.270133
12.8572	12.6542	0.389251	0.273352
12.8577	12.6537	0.389056	0.27568
12.8582	12.6533	0.388889	0.276837
12.8586	12.6528	0.388518	0.277792
12.8591	12.6523	0.389865	0.280821
12.8596	12.6519	0.389158	0.283323
12.8601	12.6514	0.387597	0.285409
12.8605	12.6509	0.388939	0.286993
12.861	12.6504	0.38792	0.288928
12.8615	12.65	0.390487	0.291768
12.8619	12.6495	0.388383	0.293986
12.8624	12.649	0.387509	0.297799
12.8629	12.6486	0.387592	0.298349
12.8634	12.6481	0.387833	0.29931
12.8638	12.6476	0.392818	0.304245
12.8643	12.6471	0.389614	0.307353
12.8648	12.6467	0.384747	0.306517
12.8652	12.6462	0.385782	0.30437
12.8657	12.6457	0.38268	0.305089
12.8662	12.6452	0.383613	0.307151
12.8667	12.6447	0.383538	0.308473
12.8671	12.6443	0.382469	0.310806
12.8676	12.6438	0.383853	0.310908
12.8681	12.6433	0.384874	0.311075
12.8686	12.6429	0.386367	0.313095
12.869	12.6424	0.387388	0.316325
12.8695	12.642	0.384907	0.315933
12.87	12.6415	0.385611	0.314916
12.8704	12.641	0.38659	0.314712
12.8709	12.6405	0.387587	0.315297
12.8714	12.6401	0.386732	0.315662
12.8719	12.6396	0.386614	0.315342
12.8723	12.6391	0.385523	0.314053
12.8728	12.6387	0.387115	0.312924
12.8733	12.6382	0.387053	0.312387
12.8737	12.6377	0.388111	0.314211
12.8742	12.6373	0.386864	0.313101
12.8747	12.6368	0.38677	0.311019
12.8752	12.6363	0.386067	0.309935
12.8756	12.6358	0.388589	0.310392
12.8761	12.6353	0.386776	0.310836
12.8766	12.6349	0.386472	0.310866
12.8771	12.6344	0.386682	0.308434
12.8775	12.6339	0.386649	0.306758
12.878	12.6335	0.386816	0.307818
12.8785	12.633	0.3886	0.310201
12.8789	12.6325	0.38655	0.310249
12.8794	12.6321	0.387009	0.30819
12.8799	12.6316	0.388109	0.308621
12.8804	12.6311	0.389658	0.308895
12.8808	12.6306	0.387766	0.310624
12.8813	12.6302	0.386983	0.310966
12.8818	12.6297	0.388452	0.308839
12.8822	12.6292	0.389532	0.308053
12.8827	12.6288	0.388502	0.309748
12.8832	12.6283	0.38728	0.31136
12.8837	12.6278	0.386871	0.312125
12.8841	12.6273	0.387726	0.309512
12.8846	12.6269	0.388212	0.30996
12.8851	12.6264	0.389588	0.309516
12.8856	12.6259	0.38851	0.310709
12.886	12.6254	0.388216	0.310739
12.8865	12.6249	0.389794	0.30695
12.887	12.6245	0.388604	0.306364
12.8874	12.624	0.387097	0.305708
12.8879	12.6235	0.39026	0.30882
12.8884	12.623	0.386841	0.306218
12.8889	12.6226	0.387134	0.304663
12.8893	12.6221	0.389118	0.303167
12.8898	12.6217	0.389208	0.303731
12.8903	12.6212	0.388825	0.304539
12.8907	12.6207	0.387226	0.303694
12.8912	12.6202	0.388632	0.302102
12.8917	12.6197	0.388937	0.301768
12.8922	12.6193	0.387899	0.302081
12.8926	12.6188	0.390043	0.302696
12.8931	12.6183	0.387386	0.303318
12.8936	12.6179	0.388512	0.302075
12.8941	12.6174	0.389282	0.302128
12.8945	12.6169	0.389722	0.301391
12.895	12.6164	0.38845	0.30231
12.8955	12.616	0.387747	0.303564
12.8959	12.6155	0.388838	0.301548
12.8964	12.615	0.389503	0.300206
12.8969	12.6145	0.387986	0.300514
12.8974	12.6141	0.38949	0.302436
12.8978	12.6136	0.388026	0.301718
12.8983	12.6131	0.388433	0.299419
12.8988	12.6127	0.389045	0.298483
